# Statistical Thermodynamics
# Computation done on 08-Feb-2020 14:50:19
# Species NO(A)
# Standard state T =    2.98150e+02 (K) P =    1.01325e+05 (Pa)
# C_P           2.91233e+01 (J/K mol)
# H             6.17073e+05 (J/mol)
# S             2.03894e+02 (J/K mol)
# C_P/R         3.50273e+00
# H/RT          2.48925e+02
# S/R           2.45229e+01
#     T            C_P/R           H/RT            S/R
   2.00000e+02,    3.50078e+00,    3.69366e+02,    2.31249e+01
   2.10000e+02,    3.50083e+00,    3.51944e+02,    2.32957e+01
   2.20000e+02,    3.50090e+00,    3.36106e+02,    2.34585e+01
   2.30000e+02,    3.50097e+00,    3.21644e+02,    2.36142e+01
   2.40000e+02,    3.50108e+00,    3.08389e+02,    2.37632e+01
   2.50000e+02,    3.50121e+00,    2.96193e+02,    2.39061e+01
   2.60000e+02,    3.50139e+00,    2.84936e+02,    2.40434e+01
   2.70000e+02,    3.50163e+00,    2.74512e+02,    2.41755e+01
   2.80000e+02,    3.50194e+00,    2.64833e+02,    2.43029e+01
   2.90000e+02,    3.50233e+00,    2.55822e+02,    2.44258e+01
   3.00000e+02,    3.50283e+00,    2.47411e+02,    2.45445e+01
   3.10000e+02,    3.50346e+00,    2.39543e+02,    2.46594e+01
   3.20000e+02,    3.50422e+00,    2.32167e+02,    2.47706e+01
   3.30000e+02,    3.50513e+00,    2.25238e+02,    2.48785e+01
   3.40000e+02,    3.50622e+00,    2.18716e+02,    2.49831e+01
   3.50000e+02,    3.50751e+00,    2.12567e+02,    2.50848e+01
   3.60000e+02,    3.50899e+00,    2.06760e+02,    2.51836e+01
   3.70000e+02,    3.51070e+00,    2.01267e+02,    2.52798e+01
   3.80000e+02,    3.51264e+00,    1.96063e+02,    2.53734e+01
   3.90000e+02,    3.51483e+00,    1.91126e+02,    2.54647e+01
   4.00000e+02,    3.51727e+00,    1.86435e+02,    2.55537e+01
   4.10000e+02,    3.51996e+00,    1.81974e+02,    2.56406e+01
   4.20000e+02,    3.52293e+00,    1.77725e+02,    2.57255e+01
   4.30000e+02,    3.52616e+00,    1.73674e+02,    2.58084e+01
   4.40000e+02,    3.52967e+00,    1.69807e+02,    2.58895e+01
   4.50000e+02,    3.53345e+00,    1.66112e+02,    2.59689e+01
   4.60000e+02,    3.53750e+00,    1.62578e+02,    2.60466e+01
   4.70000e+02,    3.54182e+00,    1.59194e+02,    2.61227e+01
   4.80000e+02,    3.54640e+00,    1.55951e+02,    2.61973e+01
   4.90000e+02,    3.55124e+00,    1.52841e+02,    2.62705e+01
   5.00000e+02,    3.55634e+00,    1.49855e+02,    2.63423e+01
   5.10000e+02,    3.56167e+00,    1.46987e+02,    2.64128e+01
   5.20000e+02,    3.56725e+00,    1.44229e+02,    2.64820e+01
   5.30000e+02,    3.57305e+00,    1.41575e+02,    2.65500e+01
   5.40000e+02,    3.57907e+00,    1.39019e+02,    2.66168e+01
   5.50000e+02,    3.58529e+00,    1.36557e+02,    2.66826e+01
   5.60000e+02,    3.59172e+00,    1.34182e+02,    2.67472e+01
   5.70000e+02,    3.59833e+00,    1.31891e+02,    2.68108e+01
   5.80000e+02,    3.60511e+00,    1.29679e+02,    2.68735e+01
   5.90000e+02,    3.61205e+00,    1.27543e+02,    2.69352e+01
   6.00000e+02,    3.61915e+00,    1.25477e+02,    2.69959e+01
   6.10000e+02,    3.62639e+00,    1.23479e+02,    2.70558e+01
   6.20000e+02,    3.63376e+00,    1.21546e+02,    2.71148e+01
   6.30000e+02,    3.64125e+00,    1.19675e+02,    2.71730e+01
   6.40000e+02,    3.64884e+00,    1.17862e+02,    2.72305e+01
   6.50000e+02,    3.65654e+00,    1.16105e+02,    2.72871e+01
   6.60000e+02,    3.66432e+00,    1.14401e+02,    2.73430e+01
   6.70000e+02,    3.67217e+00,    1.12748e+02,    2.73981e+01
   6.80000e+02,    3.68010e+00,    1.11144e+02,    2.74526e+01
   6.90000e+02,    3.68808e+00,    1.09587e+02,    2.75064e+01
   7.00000e+02,    3.69611e+00,    1.08074e+02,    2.75595e+01
   7.10000e+02,    3.70418e+00,    1.06604e+02,    2.76120e+01
   7.20000e+02,    3.71228e+00,    1.05175e+02,    2.76639e+01
   7.30000e+02,    3.72041e+00,    1.03785e+02,    2.77151e+01
   7.40000e+02,    3.72855e+00,    1.02433e+02,    2.77658e+01
   7.50000e+02,    3.73671e+00,    1.01117e+02,    2.78159e+01
   7.60000e+02,    3.74486e+00,    9.98357e+01,    2.78654e+01
   7.70000e+02,    3.75301e+00,    9.85879e+01,    2.79144e+01
   7.80000e+02,    3.76116e+00,    9.73721e+01,    2.79629e+01
   7.90000e+02,    3.76928e+00,    9.61872e+01,    2.80109e+01
   8.00000e+02,    3.77739e+00,    9.50320e+01,    2.80583e+01
   8.10000e+02,    3.78547e+00,    9.39055e+01,    2.81053e+01
   8.20000e+02,    3.79351e+00,    9.28065e+01,    2.81518e+01
   8.30000e+02,    3.80153e+00,    9.17341e+01,    2.81979e+01
   8.40000e+02,    3.80950e+00,    9.06873e+01,    2.82434e+01
   8.50000e+02,    3.81743e+00,    8.96653e+01,    2.82886e+01
   8.60000e+02,    3.82532e+00,    8.86671e+01,    2.83333e+01
   8.70000e+02,    3.83315e+00,    8.76919e+01,    2.83775e+01
   8.80000e+02,    3.84093e+00,    8.67390e+01,    2.84214e+01
   8.90000e+02,    3.84866e+00,    8.58077e+01,    2.84648e+01
   9.00000e+02,    3.85633e+00,    8.48970e+01,    2.85079e+01
   9.10000e+02,    3.86393e+00,    8.40065e+01,    2.85505e+01
   9.20000e+02,    3.87148e+00,    8.31355e+01,    2.85928e+01
   9.30000e+02,    3.87896e+00,    8.22832e+01,    2.86347e+01
   9.40000e+02,    3.88637e+00,    8.14491e+01,    2.86762e+01
   9.50000e+02,    3.89372e+00,    8.06327e+01,    2.87174e+01
   9.60000e+02,    3.90099e+00,    7.98334e+01,    2.87582e+01
   9.70000e+02,    3.90820e+00,    7.90506e+01,    2.87986e+01
   9.80000e+02,    3.91534e+00,    7.82839e+01,    2.88388e+01
   9.90000e+02,    3.92240e+00,    7.75327e+01,    2.88786e+01
   1.00000e+03,    3.92939e+00,    7.67967e+01,    2.89180e+01
   1.01000e+03,    3.93630e+00,    7.60753e+01,    2.89571e+01
   1.02000e+03,    3.94314e+00,    7.53680e+01,    2.89960e+01
   1.03000e+03,    3.94991e+00,    7.46746e+01,    2.90345e+01
   1.04000e+03,    3.95660e+00,    7.39946e+01,    2.90727e+01
   1.05000e+03,    3.96321e+00,    7.33276e+01,    2.91106e+01
   1.06000e+03,    3.96975e+00,    7.26733e+01,    2.91481e+01
   1.07000e+03,    3.97622e+00,    7.20312e+01,    2.91855e+01
   1.08000e+03,    3.98261e+00,    7.14011e+01,    2.92225e+01
   1.09000e+03,    3.98892e+00,    7.07826e+01,    2.92592e+01
   1.10000e+03,    3.99516e+00,    7.01754e+01,    2.92957e+01
   1.11000e+03,    4.00132e+00,    6.95792e+01,    2.93318e+01
   1.12000e+03,    4.00741e+00,    6.89937e+01,    2.93678e+01
   1.13000e+03,    4.01342e+00,    6.84187e+01,    2.94034e+01
   1.14000e+03,    4.01936e+00,    6.78537e+01,    2.94388e+01
   1.15000e+03,    4.02522e+00,    6.72987e+01,    2.94739e+01
   1.16000e+03,    4.03102e+00,    6.67532e+01,    2.95088e+01
   1.17000e+03,    4.03673e+00,    6.62172e+01,    2.95434e+01
   1.18000e+03,    4.04238e+00,    6.56903e+01,    2.95778e+01
   1.19000e+03,    4.04796e+00,    6.51722e+01,    2.96119e+01
   1.20000e+03,    4.05346e+00,    6.46629e+01,    2.96458e+01
   1.21000e+03,    4.05889e+00,    6.41620e+01,    2.96795e+01
   1.22000e+03,    4.06426e+00,    6.36694e+01,    2.97129e+01
   1.23000e+03,    4.06955e+00,    6.31848e+01,    2.97461e+01
   1.24000e+03,    4.07478e+00,    6.27081e+01,    2.97791e+01
   1.25000e+03,    4.07994e+00,    6.22390e+01,    2.98119e+01
   1.26000e+03,    4.08503e+00,    6.17775e+01,    2.98444e+01
   1.27000e+03,    4.09006e+00,    6.13232e+01,    2.98767e+01
   1.28000e+03,    4.09502e+00,    6.08761e+01,    2.99088e+01
   1.29000e+03,    4.09991e+00,    6.04360e+01,    2.99407e+01
   1.30000e+03,    4.10474e+00,    6.00026e+01,    2.99724e+01
   1.31000e+03,    4.10951e+00,    5.95760e+01,    3.00038e+01
   1.32000e+03,    4.11422e+00,    5.91558e+01,    3.00351e+01
   1.33000e+03,    4.11886e+00,    5.87419e+01,    3.00662e+01
   1.34000e+03,    4.12345e+00,    5.83343e+01,    3.00970e+01
   1.35000e+03,    4.12797e+00,    5.79328e+01,    3.01277e+01
   1.36000e+03,    4.13243e+00,    5.75372e+01,    3.01582e+01
   1.37000e+03,    4.13684e+00,    5.71474e+01,    3.01885e+01
   1.38000e+03,    4.14119e+00,    5.67633e+01,    3.02186e+01
   1.39000e+03,    4.14548e+00,    5.63847e+01,    3.02485e+01
   1.40000e+03,    4.14971e+00,    5.60116e+01,    3.02782e+01
   1.41000e+03,    4.15389e+00,    5.56438e+01,    3.03078e+01
   1.42000e+03,    4.15801e+00,    5.52812e+01,    3.03372e+01
   1.43000e+03,    4.16208e+00,    5.49237e+01,    3.03664e+01
   1.44000e+03,    4.16610e+00,    5.45712e+01,    3.03954e+01
   1.45000e+03,    4.17007e+00,    5.42236e+01,    3.04242e+01
   1.46000e+03,    4.17398e+00,    5.38808e+01,    3.04529e+01
   1.47000e+03,    4.17784e+00,    5.35426e+01,    3.04814e+01
   1.48000e+03,    4.18166e+00,    5.32091e+01,    3.05097e+01
   1.49000e+03,    4.18542e+00,    5.28801e+01,    3.05379e+01
   1.50000e+03,    4.18913e+00,    5.25555e+01,    3.05659e+01
   1.51000e+03,    4.19280e+00,    5.22352e+01,    3.05938e+01
   1.52000e+03,    4.19642e+00,    5.19191e+01,    3.06214e+01
   1.53000e+03,    4.19999e+00,    5.16072e+01,    3.06490e+01
   1.54000e+03,    4.20352e+00,    5.12994e+01,    3.06763e+01
   1.55000e+03,    4.20700e+00,    5.09955e+01,    3.07036e+01
   1.56000e+03,    4.21044e+00,    5.06956e+01,    3.07306e+01
   1.57000e+03,    4.21383e+00,    5.03996e+01,    3.07575e+01
   1.58000e+03,    4.21718e+00,    5.01073e+01,    3.07843e+01
   1.59000e+03,    4.22049e+00,    4.98186e+01,    3.08109e+01
   1.60000e+03,    4.22376e+00,    4.95337e+01,    3.08374e+01
   1.61000e+03,    4.22698e+00,    4.92522e+01,    3.08637e+01
   1.62000e+03,    4.23017e+00,    4.89743e+01,    3.08899e+01
   1.63000e+03,    4.23331e+00,    4.86998e+01,    3.09160e+01
   1.64000e+03,    4.23642e+00,    4.84287e+01,    3.09419e+01
   1.65000e+03,    4.23949e+00,    4.81609e+01,    3.09676e+01
   1.66000e+03,    4.24252e+00,    4.78963e+01,    3.09932e+01
   1.67000e+03,    4.24551e+00,    4.76349e+01,    3.10187e+01
   1.68000e+03,    4.24846e+00,    4.73767e+01,    3.10441e+01
   1.69000e+03,    4.25138e+00,    4.71215e+01,    3.10693e+01
   1.70000e+03,    4.25426e+00,    4.68693e+01,    3.10944e+01
   1.71000e+03,    4.25711e+00,    4.66201e+01,    3.11194e+01
   1.72000e+03,    4.25992e+00,    4.63738e+01,    3.11442e+01
   1.73000e+03,    4.26270e+00,    4.61304e+01,    3.11689e+01
   1.74000e+03,    4.26544e+00,    4.58898e+01,    3.11935e+01
   1.75000e+03,    4.26816e+00,    4.56519e+01,    3.12179e+01
   1.76000e+03,    4.27083e+00,    4.54168e+01,    3.12423e+01
   1.77000e+03,    4.27348e+00,    4.51843e+01,    3.12665e+01
   1.78000e+03,    4.27610e+00,    4.49545e+01,    3.12905e+01
   1.79000e+03,    4.27868e+00,    4.47273e+01,    3.13145e+01
   1.80000e+03,    4.28123e+00,    4.45026e+01,    3.13383e+01
   1.81000e+03,    4.28376e+00,    4.42803e+01,    3.13621e+01
   1.82000e+03,    4.28625e+00,    4.40606e+01,    3.13857e+01
   1.83000e+03,    4.28871e+00,    4.38433e+01,    3.14092e+01
   1.84000e+03,    4.29115e+00,    4.36283e+01,    3.14326e+01
   1.85000e+03,    4.29356e+00,    4.34157e+01,    3.14558e+01
   1.86000e+03,    4.29594e+00,    4.32053e+01,    3.14790e+01
   1.87000e+03,    4.29829e+00,    4.29973e+01,    3.15020e+01
   1.88000e+03,    4.30061e+00,    4.27914e+01,    3.15249e+01
   1.89000e+03,    4.30291e+00,    4.25878e+01,    3.15478e+01
   1.90000e+03,    4.30518e+00,    4.23863e+01,    3.15705e+01
   1.91000e+03,    4.30743e+00,    4.21869e+01,    3.15931e+01
   1.92000e+03,    4.30965e+00,    4.19896e+01,    3.16156e+01
   1.93000e+03,    4.31184e+00,    4.17944e+01,    3.16380e+01
   1.94000e+03,    4.31401e+00,    4.16012e+01,    3.16603e+01
   1.95000e+03,    4.31616e+00,    4.14100e+01,    3.16824e+01
   1.96000e+03,    4.31828e+00,    4.12207e+01,    3.17045e+01
   1.97000e+03,    4.32038e+00,    4.10334e+01,    3.17265e+01
   1.98000e+03,    4.32246e+00,    4.08480e+01,    3.17484e+01
   1.99000e+03,    4.32451e+00,    4.06645e+01,    3.17702e+01
   2.00000e+03,    4.32654e+00,    4.04828e+01,    3.17919e+01
   2.01000e+03,    4.32855e+00,    4.03029e+01,    3.18134e+01
   2.02000e+03,    4.33053e+00,    4.01248e+01,    3.18349e+01
   2.03000e+03,    4.33250e+00,    3.99485e+01,    3.18563e+01
   2.04000e+03,    4.33444e+00,    3.97739e+01,    3.18776e+01
   2.05000e+03,    4.33636e+00,    3.96010e+01,    3.18988e+01
   2.06000e+03,    4.33826e+00,    3.94299e+01,    3.19199e+01
   2.07000e+03,    4.34014e+00,    3.92603e+01,    3.19409e+01
   2.08000e+03,    4.34200e+00,    3.90925e+01,    3.19619e+01
   2.09000e+03,    4.34385e+00,    3.89262e+01,    3.19827e+01
   2.10000e+03,    4.34567e+00,    3.87615e+01,    3.20034e+01
   2.11000e+03,    4.34747e+00,    3.85984e+01,    3.20241e+01
   2.12000e+03,    4.34925e+00,    3.84369e+01,    3.20446e+01
   2.13000e+03,    4.35102e+00,    3.82768e+01,    3.20651e+01
   2.14000e+03,    4.35277e+00,    3.81183e+01,    3.20855e+01
   2.15000e+03,    4.35449e+00,    3.79612e+01,    3.21058e+01
   2.16000e+03,    4.35620e+00,    3.78057e+01,    3.21260e+01
   2.17000e+03,    4.35790e+00,    3.76515e+01,    3.21461e+01
   2.18000e+03,    4.35957e+00,    3.74988e+01,    3.21662e+01
   2.19000e+03,    4.36123e+00,    3.73475e+01,    3.21861e+01
   2.20000e+03,    4.36287e+00,    3.71976e+01,    3.22060e+01
   2.21000e+03,    4.36450e+00,    3.70490e+01,    3.22258e+01
   2.22000e+03,    4.36611e+00,    3.69018e+01,    3.22455e+01
   2.23000e+03,    4.36770e+00,    3.67559e+01,    3.22651e+01
   2.24000e+03,    4.36927e+00,    3.66113e+01,    3.22847e+01
   2.25000e+03,    4.37083e+00,    3.64680e+01,    3.23041e+01
   2.26000e+03,    4.37238e+00,    3.63260e+01,    3.23235e+01
   2.27000e+03,    4.37391e+00,    3.61852e+01,    3.23428e+01
   2.28000e+03,    4.37542e+00,    3.60457e+01,    3.23620e+01
   2.29000e+03,    4.37692e+00,    3.59074e+01,    3.23812e+01
   2.30000e+03,    4.37841e+00,    3.57703e+01,    3.24003e+01
   2.31000e+03,    4.37987e+00,    3.56344e+01,    3.24193e+01
   2.32000e+03,    4.38133e+00,    3.54997e+01,    3.24382e+01
   2.33000e+03,    4.38277e+00,    3.53661e+01,    3.24570e+01
   2.34000e+03,    4.38420e+00,    3.52337e+01,    3.24758e+01
   2.35000e+03,    4.38561e+00,    3.51025e+01,    3.24945e+01
   2.36000e+03,    4.38701e+00,    3.49723e+01,    3.25131e+01
   2.37000e+03,    4.38839e+00,    3.48433e+01,    3.25317e+01
   2.38000e+03,    4.38977e+00,    3.47153e+01,    3.25502e+01
   2.39000e+03,    4.39112e+00,    3.45884e+01,    3.25686e+01
   2.40000e+03,    4.39247e+00,    3.44626e+01,    3.25869e+01
   2.41000e+03,    4.39380e+00,    3.43378e+01,    3.26052e+01
   2.42000e+03,    4.39512e+00,    3.42141e+01,    3.26234e+01
   2.43000e+03,    4.39643e+00,    3.40914e+01,    3.26415e+01
   2.44000e+03,    4.39772e+00,    3.39697e+01,    3.26596e+01
   2.45000e+03,    4.39901e+00,    3.38490e+01,    3.26776e+01
   2.46000e+03,    4.40028e+00,    3.37293e+01,    3.26955e+01
   2.47000e+03,    4.40153e+00,    3.36105e+01,    3.27133e+01
   2.48000e+03,    4.40278e+00,    3.34928e+01,    3.27311e+01
   2.49000e+03,    4.40401e+00,    3.33759e+01,    3.27488e+01
   2.50000e+03,    4.40524e+00,    3.32601e+01,    3.27665e+01
   2.51000e+03,    4.40645e+00,    3.31451e+01,    3.27841e+01
   2.52000e+03,    4.40764e+00,    3.30311e+01,    3.28016e+01
   2.53000e+03,    4.40883e+00,    3.29179e+01,    3.28191e+01
   2.54000e+03,    4.41001e+00,    3.28057e+01,    3.28365e+01
   2.55000e+03,    4.41117e+00,    3.26943e+01,    3.28538e+01
   2.56000e+03,    4.41233e+00,    3.25839e+01,    3.28710e+01
   2.57000e+03,    4.41347e+00,    3.24742e+01,    3.28883e+01
   2.58000e+03,    4.41460e+00,    3.23655e+01,    3.29054e+01
   2.59000e+03,    4.41572e+00,    3.22576e+01,    3.29225e+01
   2.60000e+03,    4.41683e+00,    3.21505e+01,    3.29395e+01
   2.61000e+03,    4.41793e+00,    3.20442e+01,    3.29565e+01
   2.62000e+03,    4.41902e+00,    3.19388e+01,    3.29733e+01
   2.63000e+03,    4.42010e+00,    3.18342e+01,    3.29902e+01
   2.64000e+03,    4.42117e+00,    3.17303e+01,    3.30070e+01
   2.65000e+03,    4.42223e+00,    3.16273e+01,    3.30237e+01
   2.66000e+03,    4.42327e+00,    3.15250e+01,    3.30403e+01
   2.67000e+03,    4.42431e+00,    3.14235e+01,    3.30569e+01
   2.68000e+03,    4.42534e+00,    3.13227e+01,    3.30735e+01
   2.69000e+03,    4.42635e+00,    3.12228e+01,    3.30900e+01
   2.70000e+03,    4.42736e+00,    3.11235e+01,    3.31064e+01
   2.71000e+03,    4.42836e+00,    3.10250e+01,    3.31228e+01
   2.72000e+03,    4.42935e+00,    3.09272e+01,    3.31391e+01
   2.73000e+03,    4.43032e+00,    3.08302e+01,    3.31553e+01
   2.74000e+03,    4.43129e+00,    3.07338e+01,    3.31715e+01
   2.75000e+03,    4.43225e+00,    3.06382e+01,    3.31877e+01
   2.76000e+03,    4.43320e+00,    3.05432e+01,    3.32038e+01
   2.77000e+03,    4.43414e+00,    3.04490e+01,    3.32198e+01
   2.78000e+03,    4.43507e+00,    3.03554e+01,    3.32358e+01
   2.79000e+03,    4.43599e+00,    3.02625e+01,    3.32517e+01
   2.80000e+03,    4.43690e+00,    3.01703e+01,    3.32676e+01
   2.81000e+03,    4.43780e+00,    3.00787e+01,    3.32834e+01
   2.82000e+03,    4.43869e+00,    2.99878e+01,    3.32992e+01
   2.83000e+03,    4.43957e+00,    2.98975e+01,    3.33149e+01
   2.84000e+03,    4.44045e+00,    2.98078e+01,    3.33305e+01
   2.85000e+03,    4.44131e+00,    2.97188e+01,    3.33461e+01
   2.86000e+03,    4.44217e+00,    2.96304e+01,    3.33617e+01
   2.87000e+03,    4.44301e+00,    2.95427e+01,    3.33772e+01
   2.88000e+03,    4.44385e+00,    2.94555e+01,    3.33927e+01
   2.89000e+03,    4.44468e+00,    2.93690e+01,    3.34081e+01
   2.90000e+03,    4.44549e+00,    2.92830e+01,    3.34234e+01
   2.91000e+03,    4.44630e+00,    2.91977e+01,    3.34387e+01
   2.92000e+03,    4.44710e+00,    2.91129e+01,    3.34540e+01
   2.93000e+03,    4.44789e+00,    2.90287e+01,    3.34692e+01
   2.94000e+03,    4.44868e+00,    2.89451e+01,    3.34843e+01
   2.95000e+03,    4.44945e+00,    2.88621e+01,    3.34995e+01
   2.96000e+03,    4.45021e+00,    2.87796e+01,    3.35145e+01
   2.97000e+03,    4.45097e+00,    2.86977e+01,    3.35295e+01
   2.98000e+03,    4.45172e+00,    2.86163e+01,    3.35445e+01
   2.99000e+03,    4.45245e+00,    2.85355e+01,    3.35594e+01
   3.00000e+03,    4.45318e+00,    2.84553e+01,    3.35743e+01
   3.01000e+03,    4.45390e+00,    2.83755e+01,    3.35891e+01
   3.02000e+03,    4.45461e+00,    2.82963e+01,    3.36039e+01
   3.03000e+03,    4.45531e+00,    2.82176e+01,    3.36186e+01
   3.04000e+03,    4.45601e+00,    2.81395e+01,    3.36333e+01
   3.05000e+03,    4.45669e+00,    2.80618e+01,    3.36479e+01
   3.06000e+03,    4.45736e+00,    2.79847e+01,    3.36625e+01
   3.07000e+03,    4.45803e+00,    2.79080e+01,    3.36770e+01
   3.08000e+03,    4.45869e+00,    2.78319e+01,    3.36915e+01
   3.09000e+03,    4.45934e+00,    2.77563e+01,    3.37060e+01
   3.10000e+03,    4.45998e+00,    2.76811e+01,    3.37204e+01
   3.11000e+03,    4.46061e+00,    2.76064e+01,    3.37348e+01
   3.12000e+03,    4.46123e+00,    2.75323e+01,    3.37491e+01
   3.13000e+03,    4.46184e+00,    2.74586e+01,    3.37634e+01
   3.14000e+03,    4.46244e+00,    2.73853e+01,    3.37776e+01
   3.15000e+03,    4.46304e+00,    2.73125e+01,    3.37918e+01
   3.16000e+03,    4.46363e+00,    2.72402e+01,    3.38059e+01
   3.17000e+03,    4.46420e+00,    2.71684e+01,    3.38200e+01
   3.18000e+03,    4.46477e+00,    2.70970e+01,    3.38341e+01
   3.19000e+03,    4.46533e+00,    2.70260e+01,    3.38481e+01
   3.20000e+03,    4.46588e+00,    2.69555e+01,    3.38621e+01
   3.21000e+03,    4.46642e+00,    2.68855e+01,    3.38760e+01
   3.22000e+03,    4.46695e+00,    2.68159e+01,    3.38899e+01
   3.23000e+03,    4.46748e+00,    2.67467e+01,    3.39038e+01
   3.24000e+03,    4.46799e+00,    2.66779e+01,    3.39176e+01
   3.25000e+03,    4.46850e+00,    2.66096e+01,    3.39314e+01
   3.26000e+03,    4.46899e+00,    2.65417e+01,    3.39451e+01
   3.27000e+03,    4.46948e+00,    2.64742e+01,    3.39588e+01
   3.28000e+03,    4.46996e+00,    2.64071e+01,    3.39724e+01
   3.29000e+03,    4.47043e+00,    2.63404e+01,    3.39860e+01
   3.30000e+03,    4.47089e+00,    2.62741e+01,    3.39996e+01
   3.31000e+03,    4.47134e+00,    2.62082e+01,    3.40131e+01
   3.32000e+03,    4.47178e+00,    2.61428e+01,    3.40266e+01
   3.33000e+03,    4.47221e+00,    2.60777e+01,    3.40401e+01
   3.34000e+03,    4.47263e+00,    2.60130e+01,    3.40535e+01
   3.35000e+03,    4.47305e+00,    2.59487e+01,    3.40668e+01
   3.36000e+03,    4.47345e+00,    2.58848e+01,    3.40802e+01
   3.37000e+03,    4.47385e+00,    2.58213e+01,    3.40935e+01
   3.38000e+03,    4.47423e+00,    2.57581e+01,    3.41067e+01
   3.39000e+03,    4.47461e+00,    2.56953e+01,    3.41199e+01
   3.40000e+03,    4.47498e+00,    2.56329e+01,    3.41331e+01
   3.41000e+03,    4.47534e+00,    2.55709e+01,    3.41463e+01
   3.42000e+03,    4.47569e+00,    2.55092e+01,    3.41594e+01
   3.43000e+03,    4.47602e+00,    2.54479e+01,    3.41724e+01
   3.44000e+03,    4.47635e+00,    2.53869e+01,    3.41855e+01
   3.45000e+03,    4.47668e+00,    2.53263e+01,    3.41985e+01
   3.46000e+03,    4.47699e+00,    2.52660e+01,    3.42114e+01
   3.47000e+03,    4.47729e+00,    2.52061e+01,    3.42243e+01
   3.48000e+03,    4.47758e+00,    2.51465e+01,    3.42372e+01
   3.49000e+03,    4.47786e+00,    2.50873e+01,    3.42501e+01
   3.50000e+03,    4.47814e+00,    2.50284e+01,    3.42629e+01
   3.51000e+03,    4.47840e+00,    2.49699e+01,    3.42757e+01
   3.52000e+03,    4.47865e+00,    2.49117e+01,    3.42884e+01
   3.53000e+03,    4.47890e+00,    2.48538e+01,    3.43011e+01
   3.54000e+03,    4.47913e+00,    2.47962e+01,    3.43138e+01
   3.55000e+03,    4.47936e+00,    2.47390e+01,    3.43264e+01
   3.56000e+03,    4.47957e+00,    2.46821e+01,    3.43390e+01
   3.57000e+03,    4.47978e+00,    2.46255e+01,    3.43516e+01
   3.58000e+03,    4.47998e+00,    2.45692e+01,    3.43641e+01
   3.59000e+03,    4.48016e+00,    2.45133e+01,    3.43766e+01
   3.60000e+03,    4.48034e+00,    2.44576e+01,    3.43891e+01
   3.61000e+03,    4.48050e+00,    2.44023e+01,    3.44015e+01
   3.62000e+03,    4.48066e+00,    2.43473e+01,    3.44139e+01
   3.63000e+03,    4.48081e+00,    2.42925e+01,    3.44263e+01
   3.64000e+03,    4.48095e+00,    2.42381e+01,    3.44386e+01
   3.65000e+03,    4.48107e+00,    2.41840e+01,    3.44509e+01
   3.66000e+03,    4.48119e+00,    2.41301e+01,    3.44631e+01
   3.67000e+03,    4.48130e+00,    2.40766e+01,    3.44754e+01
   3.68000e+03,    4.48139e+00,    2.40234e+01,    3.44876e+01
   3.69000e+03,    4.48148e+00,    2.39704e+01,    3.44997e+01
   3.70000e+03,    4.48156e+00,    2.39177e+01,    3.45119e+01
   3.71000e+03,    4.48163e+00,    2.38653e+01,    3.45239e+01
   3.72000e+03,    4.48168e+00,    2.38132e+01,    3.45360e+01
   3.73000e+03,    4.48173e+00,    2.37614e+01,    3.45480e+01
   3.74000e+03,    4.48177e+00,    2.37099e+01,    3.45600e+01
   3.75000e+03,    4.48179e+00,    2.36586e+01,    3.45720e+01
   3.76000e+03,    4.48181e+00,    2.36076e+01,    3.45839e+01
   3.77000e+03,    4.48182e+00,    2.35568e+01,    3.45959e+01
   3.78000e+03,    4.48181e+00,    2.35064e+01,    3.46077e+01
   3.79000e+03,    4.48180e+00,    2.34562e+01,    3.46196e+01
   3.80000e+03,    4.48178e+00,    2.34063e+01,    3.46314e+01
   3.81000e+03,    4.48174e+00,    2.33566e+01,    3.46432e+01
   3.82000e+03,    4.48170e+00,    2.33072e+01,    3.46549e+01
   3.83000e+03,    4.48164e+00,    2.32580e+01,    3.46666e+01
   3.84000e+03,    4.48158e+00,    2.32091e+01,    3.46783e+01
   3.85000e+03,    4.48150e+00,    2.31605e+01,    3.46900e+01
   3.86000e+03,    4.48141e+00,    2.31121e+01,    3.47016e+01
   3.87000e+03,    4.48132e+00,    2.30639e+01,    3.47132e+01
   3.88000e+03,    4.48121e+00,    2.30161e+01,    3.47247e+01
   3.89000e+03,    4.48109e+00,    2.29684e+01,    3.47363e+01
   3.90000e+03,    4.48097e+00,    2.29210e+01,    3.47478e+01
   3.91000e+03,    4.48083e+00,    2.28738e+01,    3.47593e+01
   3.92000e+03,    4.48068e+00,    2.28269e+01,    3.47707e+01
   3.93000e+03,    4.48052e+00,    2.27802e+01,    3.47821e+01
   3.94000e+03,    4.48035e+00,    2.27338e+01,    3.47935e+01
   3.95000e+03,    4.48017e+00,    2.26876e+01,    3.48049e+01
   3.96000e+03,    4.47998e+00,    2.26416e+01,    3.48162e+01
   3.97000e+03,    4.47978e+00,    2.25959e+01,    3.48275e+01
   3.98000e+03,    4.47957e+00,    2.25503e+01,    3.48388e+01
   3.99000e+03,    4.47935e+00,    2.25050e+01,    3.48500e+01
   4.00000e+03,    4.47912e+00,    2.24600e+01,    3.48612e+01
   4.01000e+03,    4.47888e+00,    2.24151e+01,    3.48724e+01
   4.02000e+03,    4.47862e+00,    2.23705e+01,    3.48835e+01
   4.03000e+03,    4.47836e+00,    2.23261e+01,    3.48947e+01
   4.04000e+03,    4.47808e+00,    2.22819e+01,    3.49058e+01
   4.05000e+03,    4.47780e+00,    2.22380e+01,    3.49168e+01
   4.06000e+03,    4.47750e+00,    2.21942e+01,    3.49279e+01
   4.07000e+03,    4.47720e+00,    2.21507e+01,    3.49389e+01
   4.08000e+03,    4.47688e+00,    2.21074e+01,    3.49499e+01
   4.09000e+03,    4.47655e+00,    2.20643e+01,    3.49608e+01
   4.10000e+03,    4.47622e+00,    2.20214e+01,    3.49718e+01
   4.11000e+03,    4.47587e+00,    2.19787e+01,    3.49827e+01
   4.12000e+03,    4.47551e+00,    2.19362e+01,    3.49936e+01
   4.13000e+03,    4.47514e+00,    2.18939e+01,    3.50044e+01
   4.14000e+03,    4.47476e+00,    2.18519e+01,    3.50152e+01
   4.15000e+03,    4.47437e+00,    2.18100e+01,    3.50260e+01
   4.16000e+03,    4.47397e+00,    2.17683e+01,    3.50368e+01
   4.17000e+03,    4.47355e+00,    2.17268e+01,    3.50475e+01
   4.18000e+03,    4.47313e+00,    2.16856e+01,    3.50582e+01
   4.19000e+03,    4.47270e+00,    2.16445e+01,    3.50689e+01
   4.20000e+03,    4.47225e+00,    2.16036e+01,    3.50796e+01
   4.21000e+03,    4.47180e+00,    2.15629e+01,    3.50902e+01
   4.22000e+03,    4.47133e+00,    2.15224e+01,    3.51008e+01
   4.23000e+03,    4.47086e+00,    2.14821e+01,    3.51114e+01
   4.24000e+03,    4.47037e+00,    2.14420e+01,    3.51220e+01
   4.25000e+03,    4.46987e+00,    2.14020e+01,    3.51325e+01
   4.26000e+03,    4.46937e+00,    2.13623e+01,    3.51430e+01
   4.27000e+03,    4.46885e+00,    2.13227e+01,    3.51535e+01
   4.28000e+03,    4.46832e+00,    2.12834e+01,    3.51639e+01
   4.29000e+03,    4.46778e+00,    2.12442e+01,    3.51744e+01
   4.30000e+03,    4.46723e+00,    2.12051e+01,    3.51848e+01
   4.31000e+03,    4.46667e+00,    2.11663e+01,    3.51952e+01
   4.32000e+03,    4.46610e+00,    2.11276e+01,    3.52055e+01
   4.33000e+03,    4.46552e+00,    2.10892e+01,    3.52158e+01
   4.34000e+03,    4.46492e+00,    2.10509e+01,    3.52261e+01
   4.35000e+03,    4.46432e+00,    2.10127e+01,    3.52364e+01
   4.36000e+03,    4.46371e+00,    2.09748e+01,    3.52467e+01
   4.37000e+03,    4.46308e+00,    2.09370e+01,    3.52569e+01
   4.38000e+03,    4.46245e+00,    2.08994e+01,    3.52671e+01
   4.39000e+03,    4.46180e+00,    2.08619e+01,    3.52773e+01
   4.40000e+03,    4.46115e+00,    2.08247e+01,    3.52874e+01
   4.41000e+03,    4.46048e+00,    2.07876e+01,    3.52975e+01
   4.42000e+03,    4.45981e+00,    2.07506e+01,    3.53076e+01
   4.43000e+03,    4.45912e+00,    2.07138e+01,    3.53177e+01
   4.44000e+03,    4.45842e+00,    2.06772e+01,    3.53278e+01
   4.45000e+03,    4.45771e+00,    2.06408e+01,    3.53378e+01
   4.46000e+03,    4.45700e+00,    2.06045e+01,    3.53478e+01
   4.47000e+03,    4.45627e+00,    2.05684e+01,    3.53578e+01
   4.48000e+03,    4.45553e+00,    2.05324e+01,    3.53677e+01
   4.49000e+03,    4.45478e+00,    2.04966e+01,    3.53777e+01
   4.50000e+03,    4.45402e+00,    2.04610e+01,    3.53876e+01
   4.51000e+03,    4.45325e+00,    2.04255e+01,    3.53975e+01
   4.52000e+03,    4.45247e+00,    2.03901e+01,    3.54073e+01
   4.53000e+03,    4.45168e+00,    2.03549e+01,    3.54172e+01
   4.54000e+03,    4.45088e+00,    2.03199e+01,    3.54270e+01
   4.55000e+03,    4.45007e+00,    2.02850e+01,    3.54368e+01
   4.56000e+03,    4.44925e+00,    2.02503e+01,    3.54465e+01
   4.57000e+03,    4.44842e+00,    2.02157e+01,    3.54563e+01
   4.58000e+03,    4.44758e+00,    2.01813e+01,    3.54660e+01
   4.59000e+03,    4.44672e+00,    2.01470e+01,    3.54757e+01
   4.60000e+03,    4.44586e+00,    2.01129e+01,    3.54854e+01
   4.61000e+03,    4.44499e+00,    2.00789e+01,    3.54950e+01
   4.62000e+03,    4.44411e+00,    2.00451e+01,    3.55047e+01
   4.63000e+03,    4.44322e+00,    2.00114e+01,    3.55143e+01
   4.64000e+03,    4.44231e+00,    1.99778e+01,    3.55239e+01
   4.65000e+03,    4.44140e+00,    1.99444e+01,    3.55334e+01
   4.66000e+03,    4.44048e+00,    1.99111e+01,    3.55430e+01
   4.67000e+03,    4.43955e+00,    1.98780e+01,    3.55525e+01
   4.68000e+03,    4.43861e+00,    1.98450e+01,    3.55620e+01
   4.69000e+03,    4.43766e+00,    1.98122e+01,    3.55715e+01
   4.70000e+03,    4.43669e+00,    1.97795e+01,    3.55809e+01
   4.71000e+03,    4.43572e+00,    1.97469e+01,    3.55903e+01
   4.72000e+03,    4.43474e+00,    1.97144e+01,    3.55997e+01
   4.73000e+03,    4.43375e+00,    1.96821e+01,    3.56091e+01
   4.74000e+03,    4.43275e+00,    1.96500e+01,    3.56185e+01
   4.75000e+03,    4.43174e+00,    1.96179e+01,    3.56278e+01
   4.76000e+03,    4.43072e+00,    1.95860e+01,    3.56372e+01
   4.77000e+03,    4.42969e+00,    1.95542e+01,    3.56464e+01
   4.78000e+03,    4.42865e+00,    1.95226e+01,    3.56557e+01
   4.79000e+03,    4.42760e+00,    1.94911e+01,    3.56650e+01
   4.80000e+03,    4.42654e+00,    1.94597e+01,    3.56742e+01
   4.81000e+03,    4.42548e+00,    1.94285e+01,    3.56834e+01
   4.82000e+03,    4.42440e+00,    1.93973e+01,    3.56926e+01
   4.83000e+03,    4.42331e+00,    1.93663e+01,    3.57018e+01
   4.84000e+03,    4.42222e+00,    1.93355e+01,    3.57109e+01
   4.85000e+03,    4.42111e+00,    1.93047e+01,    3.57201e+01
   4.86000e+03,    4.41999e+00,    1.92741e+01,    3.57292e+01
   4.87000e+03,    4.41887e+00,    1.92436e+01,    3.57382e+01
   4.88000e+03,    4.41774e+00,    1.92132e+01,    3.57473e+01
   4.89000e+03,    4.41659e+00,    1.91829e+01,    3.57563e+01
   4.90000e+03,    4.41544e+00,    1.91528e+01,    3.57654e+01
   4.91000e+03,    4.41428e+00,    1.91228e+01,    3.57744e+01
   4.92000e+03,    4.41311e+00,    1.90929e+01,    3.57834e+01
   4.93000e+03,    4.41193e+00,    1.90631e+01,    3.57923e+01
   4.94000e+03,    4.41074e+00,    1.90334e+01,    3.58012e+01
   4.95000e+03,    4.40954e+00,    1.90039e+01,    3.58102e+01
   4.96000e+03,    4.40834e+00,    1.89745e+01,    3.58191e+01
   4.97000e+03,    4.40712e+00,    1.89452e+01,    3.58279e+01
   4.98000e+03,    4.40590e+00,    1.89160e+01,    3.58368e+01
   4.99000e+03,    4.40466e+00,    1.88869e+01,    3.58456e+01
   5.00000e+03,    4.40342e+00,    1.88579e+01,    3.58545e+01
   5.01000e+03,    4.40217e+00,    1.88291e+01,    3.58633e+01
   5.02000e+03,    4.40091e+00,    1.88003e+01,    3.58720e+01
   5.03000e+03,    4.39964e+00,    1.87717e+01,    3.58808e+01
   5.04000e+03,    4.39837e+00,    1.87432e+01,    3.58895e+01
   5.05000e+03,    4.39708e+00,    1.87148e+01,    3.58982e+01
   5.06000e+03,    4.39579e+00,    1.86865e+01,    3.59069e+01
   5.07000e+03,    4.39448e+00,    1.86583e+01,    3.59156e+01
   5.08000e+03,    4.39317e+00,    1.86302e+01,    3.59243e+01
   5.09000e+03,    4.39185e+00,    1.86023e+01,    3.59329e+01
   5.10000e+03,    4.39052e+00,    1.85744e+01,    3.59415e+01
   5.11000e+03,    4.38919e+00,    1.85466e+01,    3.59501e+01
   5.12000e+03,    4.38784e+00,    1.85190e+01,    3.59587e+01
   5.13000e+03,    4.38649e+00,    1.84914e+01,    3.59673e+01
   5.14000e+03,    4.38513e+00,    1.84640e+01,    3.59758e+01
   5.15000e+03,    4.38376e+00,    1.84366e+01,    3.59843e+01
   5.16000e+03,    4.38238e+00,    1.84094e+01,    3.59928e+01
   5.17000e+03,    4.38099e+00,    1.83823e+01,    3.60013e+01
   5.18000e+03,    4.37960e+00,    1.83552e+01,    3.60098e+01
   5.19000e+03,    4.37820e+00,    1.83283e+01,    3.60182e+01
   5.20000e+03,    4.37679e+00,    1.83015e+01,    3.60267e+01
   5.21000e+03,    4.37537e+00,    1.82748e+01,    3.60351e+01
   5.22000e+03,    4.37394e+00,    1.82481e+01,    3.60434e+01
   5.23000e+03,    4.37251e+00,    1.82216e+01,    3.60518e+01
   5.24000e+03,    4.37107e+00,    1.81952e+01,    3.60602e+01
   5.25000e+03,    4.36962e+00,    1.81688e+01,    3.60685e+01
   5.26000e+03,    4.36816e+00,    1.81426e+01,    3.60768e+01
   5.27000e+03,    4.36670e+00,    1.81165e+01,    3.60851e+01
   5.28000e+03,    4.36523e+00,    1.80904e+01,    3.60934e+01
   5.29000e+03,    4.36375e+00,    1.80645e+01,    3.61016e+01
   5.30000e+03,    4.36226e+00,    1.80386e+01,    3.61099e+01
   5.31000e+03,    4.36077e+00,    1.80129e+01,    3.61181e+01
   5.32000e+03,    4.35926e+00,    1.79872e+01,    3.61263e+01
   5.33000e+03,    4.35775e+00,    1.79616e+01,    3.61345e+01
   5.34000e+03,    4.35624e+00,    1.79362e+01,    3.61427e+01
   5.35000e+03,    4.35471e+00,    1.79108e+01,    3.61508e+01
   5.36000e+03,    4.35318e+00,    1.78855e+01,    3.61589e+01
   5.37000e+03,    4.35164e+00,    1.78603e+01,    3.61671e+01
   5.38000e+03,    4.35010e+00,    1.78352e+01,    3.61751e+01
   5.39000e+03,    4.34855e+00,    1.78101e+01,    3.61832e+01
   5.40000e+03,    4.34699e+00,    1.77852e+01,    3.61913e+01
   5.41000e+03,    4.34542e+00,    1.77604e+01,    3.61993e+01
   5.42000e+03,    4.34385e+00,    1.77356e+01,    3.62073e+01
   5.43000e+03,    4.34227e+00,    1.77110e+01,    3.62154e+01
   5.44000e+03,    4.34068e+00,    1.76864e+01,    3.62233e+01
   5.45000e+03,    4.33908e+00,    1.76619e+01,    3.62313e+01
   5.46000e+03,    4.33748e+00,    1.76375e+01,    3.62393e+01
   5.47000e+03,    4.33588e+00,    1.76132e+01,    3.62472e+01
   5.48000e+03,    4.33426e+00,    1.75889e+01,    3.62551e+01
   5.49000e+03,    4.33264e+00,    1.75648e+01,    3.62630e+01
   5.50000e+03,    4.33101e+00,    1.75407e+01,    3.62709e+01
   5.51000e+03,    4.32938e+00,    1.75168e+01,    3.62788e+01
   5.52000e+03,    4.32774e+00,    1.74929e+01,    3.62866e+01
   5.53000e+03,    4.32609e+00,    1.74691e+01,    3.62944e+01
   5.54000e+03,    4.32444e+00,    1.74453e+01,    3.63023e+01
   5.55000e+03,    4.32278e+00,    1.74217e+01,    3.63101e+01
   5.56000e+03,    4.32111e+00,    1.73981e+01,    3.63178e+01
   5.57000e+03,    4.31944e+00,    1.73747e+01,    3.63256e+01
   5.58000e+03,    4.31776e+00,    1.73513e+01,    3.63334e+01
   5.59000e+03,    4.31608e+00,    1.73279e+01,    3.63411e+01
   5.60000e+03,    4.31439e+00,    1.73047e+01,    3.63488e+01
   5.61000e+03,    4.31269e+00,    1.72815e+01,    3.63565e+01
   5.62000e+03,    4.31099e+00,    1.72585e+01,    3.63642e+01
   5.63000e+03,    4.30928e+00,    1.72355e+01,    3.63718e+01
   5.64000e+03,    4.30757e+00,    1.72126e+01,    3.63795e+01
   5.65000e+03,    4.30585e+00,    1.71897e+01,    3.63871e+01
   5.66000e+03,    4.30412e+00,    1.71669e+01,    3.63947e+01
   5.67000e+03,    4.30239e+00,    1.71443e+01,    3.64023e+01
   5.68000e+03,    4.30065e+00,    1.71216e+01,    3.64099e+01
   5.69000e+03,    4.29891e+00,    1.70991e+01,    3.64175e+01
   5.70000e+03,    4.29716e+00,    1.70767e+01,    3.64250e+01
   5.71000e+03,    4.29541e+00,    1.70543e+01,    3.64325e+01
   5.72000e+03,    4.29365e+00,    1.70320e+01,    3.64400e+01
   5.73000e+03,    4.29188e+00,    1.70097e+01,    3.64475e+01
   5.74000e+03,    4.29011e+00,    1.69876e+01,    3.64550e+01
   5.75000e+03,    4.28834e+00,    1.69655e+01,    3.64625e+01
   5.76000e+03,    4.28655e+00,    1.69435e+01,    3.64699e+01
   5.77000e+03,    4.28477e+00,    1.69215e+01,    3.64774e+01
   5.78000e+03,    4.28298e+00,    1.68997e+01,    3.64848e+01
   5.79000e+03,    4.28118e+00,    1.68779e+01,    3.64922e+01
   5.80000e+03,    4.27938e+00,    1.68562e+01,    3.64996e+01
   5.81000e+03,    4.27757e+00,    1.68345e+01,    3.65070e+01
   5.82000e+03,    4.27576e+00,    1.68129e+01,    3.65143e+01
   5.83000e+03,    4.27394e+00,    1.67914e+01,    3.65216e+01
   5.84000e+03,    4.27212e+00,    1.67700e+01,    3.65290e+01
   5.85000e+03,    4.27030e+00,    1.67486e+01,    3.65363e+01
   5.86000e+03,    4.26846e+00,    1.67273e+01,    3.65436e+01
   5.87000e+03,    4.26663e+00,    1.67061e+01,    3.65508e+01
   5.88000e+03,    4.26479e+00,    1.66850e+01,    3.65581e+01
   5.89000e+03,    4.26294e+00,    1.66639e+01,    3.65654e+01
   5.90000e+03,    4.26109e+00,    1.66428e+01,    3.65726e+01
   5.91000e+03,    4.25924e+00,    1.66219e+01,    3.65798e+01
   5.92000e+03,    4.25738e+00,    1.66010e+01,    3.65870e+01
   5.93000e+03,    4.25552e+00,    1.65802e+01,    3.65942e+01
   5.94000e+03,    4.25365e+00,    1.65594e+01,    3.66014e+01
   5.95000e+03,    4.25178e+00,    1.65388e+01,    3.66085e+01
   5.96000e+03,    4.24990e+00,    1.65181e+01,    3.66156e+01
   5.97000e+03,    4.24802e+00,    1.64976e+01,    3.66228e+01
   5.98000e+03,    4.24613e+00,    1.64771e+01,    3.66299e+01
   5.99000e+03,    4.24424e+00,    1.64567e+01,    3.66370e+01
   6.00000e+03,    4.24235e+00,    1.64363e+01,    3.66440e+01
   6.01000e+03,    4.24045e+00,    1.64160e+01,    3.66511e+01
   6.02000e+03,    4.23855e+00,    1.63958e+01,    3.66582e+01
   6.03000e+03,    4.23665e+00,    1.63756e+01,    3.66652e+01
   6.04000e+03,    4.23474e+00,    1.63555e+01,    3.66722e+01
   6.05000e+03,    4.23282e+00,    1.63355e+01,    3.66792e+01
   6.06000e+03,    4.23090e+00,    1.63155e+01,    3.66862e+01
   6.07000e+03,    4.22898e+00,    1.62956e+01,    3.66932e+01
   6.08000e+03,    4.22706e+00,    1.62758e+01,    3.67001e+01
   6.09000e+03,    4.22513e+00,    1.62560e+01,    3.67071e+01
   6.10000e+03,    4.22320e+00,    1.62363e+01,    3.67140e+01
   6.11000e+03,    4.22126e+00,    1.62166e+01,    3.67209e+01
   6.12000e+03,    4.21932e+00,    1.61970e+01,    3.67278e+01
   6.13000e+03,    4.21738e+00,    1.61775e+01,    3.67347e+01
   6.14000e+03,    4.21543e+00,    1.61580e+01,    3.67416e+01
   6.15000e+03,    4.21348e+00,    1.61386e+01,    3.67484e+01
   6.16000e+03,    4.21153e+00,    1.61192e+01,    3.67553e+01
   6.17000e+03,    4.20957e+00,    1.60999e+01,    3.67621e+01
   6.18000e+03,    4.20761e+00,    1.60807e+01,    3.67689e+01
   6.19000e+03,    4.20565e+00,    1.60615e+01,    3.67757e+01
   6.20000e+03,    4.20368e+00,    1.60424e+01,    3.67825e+01
   6.21000e+03,    4.20171e+00,    1.60233e+01,    3.67893e+01
   6.22000e+03,    4.19974e+00,    1.60043e+01,    3.67961e+01
   6.23000e+03,    4.19776e+00,    1.59853e+01,    3.68028e+01
   6.24000e+03,    4.19578e+00,    1.59664e+01,    3.68095e+01
   6.25000e+03,    4.19380e+00,    1.59476e+01,    3.68162e+01
   6.26000e+03,    4.19182e+00,    1.59288e+01,    3.68230e+01
   6.27000e+03,    4.18983e+00,    1.59101e+01,    3.68296e+01
   6.28000e+03,    4.18784e+00,    1.58914e+01,    3.68363e+01
   6.29000e+03,    4.18584e+00,    1.58728e+01,    3.68430e+01
   6.30000e+03,    4.18385e+00,    1.58543e+01,    3.68496e+01
   6.31000e+03,    4.18185e+00,    1.58358e+01,    3.68563e+01
   6.32000e+03,    4.17984e+00,    1.58173e+01,    3.68629e+01
   6.33000e+03,    4.17784e+00,    1.57990e+01,    3.68695e+01
   6.34000e+03,    4.17583e+00,    1.57806e+01,    3.68761e+01
   6.35000e+03,    4.17382e+00,    1.57623e+01,    3.68827e+01
   6.36000e+03,    4.17181e+00,    1.57441e+01,    3.68892e+01
   6.37000e+03,    4.16979e+00,    1.57260e+01,    3.68958e+01
   6.38000e+03,    4.16778e+00,    1.57078e+01,    3.69023e+01
   6.39000e+03,    4.16576e+00,    1.56898e+01,    3.69088e+01
   6.40000e+03,    4.16374e+00,    1.56718e+01,    3.69154e+01
   6.41000e+03,    4.16171e+00,    1.56538e+01,    3.69219e+01
   6.42000e+03,    4.15968e+00,    1.56359e+01,    3.69283e+01
   6.43000e+03,    4.15765e+00,    1.56181e+01,    3.69348e+01
   6.44000e+03,    4.15562e+00,    1.56003e+01,    3.69413e+01
   6.45000e+03,    4.15359e+00,    1.55825e+01,    3.69477e+01
   6.46000e+03,    4.15155e+00,    1.55648e+01,    3.69542e+01
   6.47000e+03,    4.14952e+00,    1.55472e+01,    3.69606e+01
   6.48000e+03,    4.14748e+00,    1.55296e+01,    3.69670e+01
   6.49000e+03,    4.14543e+00,    1.55121e+01,    3.69734e+01
   6.50000e+03,    4.14339e+00,    1.54946e+01,    3.69798e+01
   6.51000e+03,    4.14134e+00,    1.54771e+01,    3.69861e+01
   6.52000e+03,    4.13930e+00,    1.54597e+01,    3.69925e+01
   6.53000e+03,    4.13725e+00,    1.54424e+01,    3.69988e+01
   6.54000e+03,    4.13519e+00,    1.54251e+01,    3.70052e+01
   6.55000e+03,    4.13314e+00,    1.54079e+01,    3.70115e+01
   6.56000e+03,    4.13109e+00,    1.53907e+01,    3.70178e+01
   6.57000e+03,    4.12903e+00,    1.53736e+01,    3.70241e+01
   6.58000e+03,    4.12697e+00,    1.53565e+01,    3.70303e+01
   6.59000e+03,    4.12491e+00,    1.53394e+01,    3.70366e+01
   6.60000e+03,    4.12285e+00,    1.53224e+01,    3.70429e+01
   6.61000e+03,    4.12079e+00,    1.53055e+01,    3.70491e+01
   6.62000e+03,    4.11872e+00,    1.52886e+01,    3.70553e+01
   6.63000e+03,    4.11666e+00,    1.52717e+01,    3.70615e+01
   6.64000e+03,    4.11459e+00,    1.52549e+01,    3.70677e+01
   6.65000e+03,    4.11252e+00,    1.52382e+01,    3.70739e+01
   6.66000e+03,    4.11045e+00,    1.52215e+01,    3.70801e+01
   6.67000e+03,    4.10838e+00,    1.52048e+01,    3.70863e+01
   6.68000e+03,    4.10630e+00,    1.51882e+01,    3.70924e+01
   6.69000e+03,    4.10423e+00,    1.51716e+01,    3.70986e+01
   6.70000e+03,    4.10215e+00,    1.51551e+01,    3.71047e+01
   6.71000e+03,    4.10008e+00,    1.51386e+01,    3.71108e+01
   6.72000e+03,    4.09800e+00,    1.51222e+01,    3.71169e+01
   6.73000e+03,    4.09592e+00,    1.51058e+01,    3.71230e+01
   6.74000e+03,    4.09384e+00,    1.50895e+01,    3.71291e+01
   6.75000e+03,    4.09176e+00,    1.50732e+01,    3.71352e+01
   6.76000e+03,    4.08967e+00,    1.50570e+01,    3.71412e+01
   6.77000e+03,    4.08759e+00,    1.50408e+01,    3.71473e+01
   6.78000e+03,    4.08551e+00,    1.50246e+01,    3.71533e+01
   6.79000e+03,    4.08342e+00,    1.50085e+01,    3.71593e+01
   6.80000e+03,    4.08134e+00,    1.49924e+01,    3.71653e+01
   6.81000e+03,    4.07925e+00,    1.49764e+01,    3.71713e+01
   6.82000e+03,    4.07716e+00,    1.49604e+01,    3.71773e+01
   6.83000e+03,    4.07507e+00,    1.49445e+01,    3.71833e+01
   6.84000e+03,    4.07298e+00,    1.49286e+01,    3.71892e+01
   6.85000e+03,    4.07089e+00,    1.49127e+01,    3.71952e+01
   6.86000e+03,    4.06880e+00,    1.48969e+01,    3.72011e+01
   6.87000e+03,    4.06671e+00,    1.48812e+01,    3.72070e+01
   6.88000e+03,    4.06462e+00,    1.48654e+01,    3.72130e+01
   6.89000e+03,    4.06252e+00,    1.48498e+01,    3.72189e+01
   6.90000e+03,    4.06043e+00,    1.48341e+01,    3.72248e+01
   6.91000e+03,    4.05834e+00,    1.48185e+01,    3.72306e+01
   6.92000e+03,    4.05624e+00,    1.48030e+01,    3.72365e+01
   6.93000e+03,    4.05415e+00,    1.47875e+01,    3.72424e+01
   6.94000e+03,    4.05205e+00,    1.47720e+01,    3.72482e+01
   6.95000e+03,    4.04996e+00,    1.47566e+01,    3.72540e+01
   6.96000e+03,    4.04786e+00,    1.47412e+01,    3.72599e+01
   6.97000e+03,    4.04576e+00,    1.47259e+01,    3.72657e+01
   6.98000e+03,    4.04367e+00,    1.47106e+01,    3.72715e+01
   6.99000e+03,    4.04157e+00,    1.46953e+01,    3.72773e+01
   7.00000e+03,    4.03947e+00,    1.46801e+01,    3.72830e+01
   7.01000e+03,    4.03738e+00,    1.46649e+01,    3.72888e+01
   7.02000e+03,    4.03528e+00,    1.46498e+01,    3.72945e+01
   7.03000e+03,    4.03318e+00,    1.46347e+01,    3.73003e+01
   7.04000e+03,    4.03108e+00,    1.46196e+01,    3.73060e+01
   7.05000e+03,    4.02898e+00,    1.46046e+01,    3.73117e+01
   7.06000e+03,    4.02689e+00,    1.45896e+01,    3.73175e+01
   7.07000e+03,    4.02479e+00,    1.45747e+01,    3.73231e+01
   7.08000e+03,    4.02269e+00,    1.45597e+01,    3.73288e+01
   7.09000e+03,    4.02059e+00,    1.45449e+01,    3.73345e+01
   7.10000e+03,    4.01849e+00,    1.45301e+01,    3.73402e+01
   7.11000e+03,    4.01639e+00,    1.45153e+01,    3.73458e+01
   7.12000e+03,    4.01429e+00,    1.45005e+01,    3.73515e+01
   7.13000e+03,    4.01220e+00,    1.44858e+01,    3.73571e+01
   7.14000e+03,    4.01010e+00,    1.44711e+01,    3.73627e+01
   7.15000e+03,    4.00800e+00,    1.44565e+01,    3.73683e+01
   7.16000e+03,    4.00590e+00,    1.44419e+01,    3.73739e+01
   7.17000e+03,    4.00380e+00,    1.44274e+01,    3.73795e+01
   7.18000e+03,    4.00171e+00,    1.44128e+01,    3.73851e+01
   7.19000e+03,    3.99961e+00,    1.43984e+01,    3.73907e+01
   7.20000e+03,    3.99751e+00,    1.43839e+01,    3.73962e+01
   7.21000e+03,    3.99542e+00,    1.43695e+01,    3.74018e+01
   7.22000e+03,    3.99332e+00,    1.43551e+01,    3.74073e+01
   7.23000e+03,    3.99123e+00,    1.43408e+01,    3.74128e+01
   7.24000e+03,    3.98913e+00,    1.43265e+01,    3.74184e+01
   7.25000e+03,    3.98703e+00,    1.43123e+01,    3.74239e+01
   7.26000e+03,    3.98494e+00,    1.42980e+01,    3.74294e+01
   7.27000e+03,    3.98285e+00,    1.42838e+01,    3.74348e+01
   7.28000e+03,    3.98075e+00,    1.42697e+01,    3.74403e+01
   7.29000e+03,    3.97866e+00,    1.42556e+01,    3.74458e+01
   7.30000e+03,    3.97657e+00,    1.42415e+01,    3.74512e+01
   7.31000e+03,    3.97447e+00,    1.42275e+01,    3.74567e+01
   7.32000e+03,    3.97238e+00,    1.42134e+01,    3.74621e+01
   7.33000e+03,    3.97029e+00,    1.41995e+01,    3.74675e+01
   7.34000e+03,    3.96820e+00,    1.41855e+01,    3.74729e+01
   7.35000e+03,    3.96611e+00,    1.41716e+01,    3.74783e+01
   7.36000e+03,    3.96402e+00,    1.41578e+01,    3.74837e+01
   7.37000e+03,    3.96194e+00,    1.41439e+01,    3.74891e+01
   7.38000e+03,    3.95985e+00,    1.41301e+01,    3.74945e+01
   7.39000e+03,    3.95776e+00,    1.41164e+01,    3.74998e+01
   7.40000e+03,    3.95568e+00,    1.41026e+01,    3.75052e+01
   7.41000e+03,    3.95359e+00,    1.40889e+01,    3.75105e+01
   7.42000e+03,    3.95151e+00,    1.40753e+01,    3.75159e+01
   7.43000e+03,    3.94942e+00,    1.40617e+01,    3.75212e+01
   7.44000e+03,    3.94734e+00,    1.40481e+01,    3.75265e+01
   7.45000e+03,    3.94526e+00,    1.40345e+01,    3.75318e+01
   7.46000e+03,    3.94318e+00,    1.40210e+01,    3.75371e+01
   7.47000e+03,    3.94110e+00,    1.40075e+01,    3.75424e+01
   7.48000e+03,    3.93902e+00,    1.39940e+01,    3.75476e+01
   7.49000e+03,    3.93694e+00,    1.39806e+01,    3.75529e+01
   7.50000e+03,    3.93486e+00,    1.39672e+01,    3.75581e+01
   7.51000e+03,    3.93279e+00,    1.39539e+01,    3.75634e+01
   7.52000e+03,    3.93071e+00,    1.39405e+01,    3.75686e+01
   7.53000e+03,    3.92864e+00,    1.39272e+01,    3.75738e+01
   7.54000e+03,    3.92656e+00,    1.39140e+01,    3.75791e+01
   7.55000e+03,    3.92449e+00,    1.39007e+01,    3.75843e+01
   7.56000e+03,    3.92242e+00,    1.38875e+01,    3.75895e+01
   7.57000e+03,    3.92035e+00,    1.38744e+01,    3.75946e+01
   7.58000e+03,    3.91828e+00,    1.38612e+01,    3.75998e+01
   7.59000e+03,    3.91621e+00,    1.38481e+01,    3.76050e+01
   7.60000e+03,    3.91415e+00,    1.38351e+01,    3.76101e+01
   7.61000e+03,    3.91208e+00,    1.38220e+01,    3.76153e+01
   7.62000e+03,    3.91002e+00,    1.38090e+01,    3.76204e+01
   7.63000e+03,    3.90796e+00,    1.37960e+01,    3.76255e+01
   7.64000e+03,    3.90590e+00,    1.37831e+01,    3.76307e+01
   7.65000e+03,    3.90384e+00,    1.37702e+01,    3.76358e+01
   7.66000e+03,    3.90178e+00,    1.37573e+01,    3.76409e+01
   7.67000e+03,    3.89972e+00,    1.37445e+01,    3.76460e+01
   7.68000e+03,    3.89766e+00,    1.37316e+01,    3.76510e+01
   7.69000e+03,    3.89561e+00,    1.37189e+01,    3.76561e+01
   7.70000e+03,    3.89355e+00,    1.37061e+01,    3.76612e+01
   7.71000e+03,    3.89150e+00,    1.36934e+01,    3.76662e+01
   7.72000e+03,    3.88945e+00,    1.36807e+01,    3.76713e+01
   7.73000e+03,    3.88740e+00,    1.36680e+01,    3.76763e+01
   7.74000e+03,    3.88535e+00,    1.36554e+01,    3.76813e+01
   7.75000e+03,    3.88331e+00,    1.36428e+01,    3.76863e+01
   7.76000e+03,    3.88126e+00,    1.36302e+01,    3.76913e+01
   7.77000e+03,    3.87922e+00,    1.36176e+01,    3.76963e+01
   7.78000e+03,    3.87718e+00,    1.36051e+01,    3.77013e+01
   7.79000e+03,    3.87513e+00,    1.35926e+01,    3.77063e+01
   7.80000e+03,    3.87310e+00,    1.35802e+01,    3.77113e+01
   7.81000e+03,    3.87106e+00,    1.35677e+01,    3.77162e+01
   7.82000e+03,    3.86902e+00,    1.35553e+01,    3.77212e+01
   7.83000e+03,    3.86699e+00,    1.35430e+01,    3.77261e+01
   7.84000e+03,    3.86495e+00,    1.35306e+01,    3.77311e+01
   7.85000e+03,    3.86292e+00,    1.35183e+01,    3.77360e+01
   7.86000e+03,    3.86089e+00,    1.35060e+01,    3.77409e+01
   7.87000e+03,    3.85887e+00,    1.34938e+01,    3.77458e+01
   7.88000e+03,    3.85684e+00,    1.34815e+01,    3.77507e+01
   7.89000e+03,    3.85481e+00,    1.34693e+01,    3.77556e+01
   7.90000e+03,    3.85279e+00,    1.34572e+01,    3.77605e+01
   7.91000e+03,    3.85077e+00,    1.34450e+01,    3.77654e+01
   7.92000e+03,    3.84875e+00,    1.34329e+01,    3.77702e+01
   7.93000e+03,    3.84673e+00,    1.34208e+01,    3.77751e+01
   7.94000e+03,    3.84471e+00,    1.34088e+01,    3.77799e+01
   7.95000e+03,    3.84270e+00,    1.33967e+01,    3.77848e+01
   7.96000e+03,    3.84069e+00,    1.33847e+01,    3.77896e+01
   7.97000e+03,    3.83868e+00,    1.33727e+01,    3.77944e+01
   7.98000e+03,    3.83667e+00,    1.33608e+01,    3.77992e+01
   7.99000e+03,    3.83466e+00,    1.33489e+01,    3.78040e+01
   8.00000e+03,    3.83265e+00,    1.33370e+01,    3.78088e+01
   8.01000e+03,    3.83065e+00,    1.33251e+01,    3.78136e+01
   8.02000e+03,    3.82865e+00,    1.33133e+01,    3.78184e+01
   8.03000e+03,    3.82665e+00,    1.33015e+01,    3.78232e+01
   8.04000e+03,    3.82465e+00,    1.32897e+01,    3.78279e+01
   8.05000e+03,    3.82265e+00,    1.32779e+01,    3.78327e+01
   8.06000e+03,    3.82066e+00,    1.32662e+01,    3.78374e+01
   8.07000e+03,    3.81866e+00,    1.32545e+01,    3.78421e+01
   8.08000e+03,    3.81667e+00,    1.32428e+01,    3.78469e+01
   8.09000e+03,    3.81468e+00,    1.32311e+01,    3.78516e+01
   8.10000e+03,    3.81270e+00,    1.32195e+01,    3.78563e+01
   8.11000e+03,    3.81071e+00,    1.32079e+01,    3.78610e+01
   8.12000e+03,    3.80873e+00,    1.31963e+01,    3.78657e+01
   8.13000e+03,    3.80675e+00,    1.31848e+01,    3.78704e+01
   8.14000e+03,    3.80477e+00,    1.31733e+01,    3.78751e+01
   8.15000e+03,    3.80279e+00,    1.31618e+01,    3.78797e+01
   8.16000e+03,    3.80082e+00,    1.31503e+01,    3.78844e+01
   8.17000e+03,    3.79884e+00,    1.31389e+01,    3.78891e+01
   8.18000e+03,    3.79687e+00,    1.31274e+01,    3.78937e+01
   8.19000e+03,    3.79490e+00,    1.31160e+01,    3.78983e+01
   8.20000e+03,    3.79293e+00,    1.31047e+01,    3.79030e+01
   8.21000e+03,    3.79097e+00,    1.30933e+01,    3.79076e+01
   8.22000e+03,    3.78901e+00,    1.30820e+01,    3.79122e+01
   8.23000e+03,    3.78704e+00,    1.30707e+01,    3.79168e+01
   8.24000e+03,    3.78509e+00,    1.30595e+01,    3.79214e+01
   8.25000e+03,    3.78313e+00,    1.30482e+01,    3.79260e+01
   8.26000e+03,    3.78117e+00,    1.30370e+01,    3.79306e+01
   8.27000e+03,    3.77922e+00,    1.30258e+01,    3.79351e+01
   8.28000e+03,    3.77727e+00,    1.30146e+01,    3.79397e+01
   8.29000e+03,    3.77532e+00,    1.30035e+01,    3.79443e+01
   8.30000e+03,    3.77338e+00,    1.29924e+01,    3.79488e+01
   8.31000e+03,    3.77143e+00,    1.29813e+01,    3.79534e+01
   8.32000e+03,    3.76949e+00,    1.29702e+01,    3.79579e+01
   8.33000e+03,    3.76755e+00,    1.29592e+01,    3.79624e+01
   8.34000e+03,    3.76561e+00,    1.29481e+01,    3.79669e+01
   8.35000e+03,    3.76368e+00,    1.29371e+01,    3.79715e+01
   8.36000e+03,    3.76174e+00,    1.29262e+01,    3.79760e+01
   8.37000e+03,    3.75981e+00,    1.29152e+01,    3.79805e+01
   8.38000e+03,    3.75788e+00,    1.29043e+01,    3.79849e+01
   8.39000e+03,    3.75596e+00,    1.28934e+01,    3.79894e+01
   8.40000e+03,    3.75403e+00,    1.28825e+01,    3.79939e+01
   8.41000e+03,    3.75211e+00,    1.28716e+01,    3.79984e+01
   8.42000e+03,    3.75019e+00,    1.28608e+01,    3.80028e+01
   8.43000e+03,    3.74827e+00,    1.28500e+01,    3.80073e+01
   8.44000e+03,    3.74636e+00,    1.28392e+01,    3.80117e+01
   8.45000e+03,    3.74444e+00,    1.28285e+01,    3.80161e+01
   8.46000e+03,    3.74253e+00,    1.28177e+01,    3.80206e+01
   8.47000e+03,    3.74062e+00,    1.28070e+01,    3.80250e+01
   8.48000e+03,    3.73872e+00,    1.27963e+01,    3.80294e+01
   8.49000e+03,    3.73681e+00,    1.27856e+01,    3.80338e+01
   8.50000e+03,    3.73491e+00,    1.27750e+01,    3.80382e+01
   8.51000e+03,    3.73301e+00,    1.27644e+01,    3.80426e+01
   8.52000e+03,    3.73111e+00,    1.27538e+01,    3.80470e+01
   8.53000e+03,    3.72922e+00,    1.27432e+01,    3.80514e+01
   8.54000e+03,    3.72732e+00,    1.27326e+01,    3.80557e+01
   8.55000e+03,    3.72543e+00,    1.27221e+01,    3.80601e+01
   8.56000e+03,    3.72355e+00,    1.27116e+01,    3.80644e+01
   8.57000e+03,    3.72166e+00,    1.27011e+01,    3.80688e+01
   8.58000e+03,    3.71978e+00,    1.26906e+01,    3.80731e+01
   8.59000e+03,    3.71790e+00,    1.26802e+01,    3.80775e+01
   8.60000e+03,    3.71602e+00,    1.26698e+01,    3.80818e+01
   8.61000e+03,    3.71414e+00,    1.26594e+01,    3.80861e+01
   8.62000e+03,    3.71227e+00,    1.26490e+01,    3.80904e+01
   8.63000e+03,    3.71039e+00,    1.26386e+01,    3.80947e+01
   8.64000e+03,    3.70853e+00,    1.26283e+01,    3.80990e+01
   8.65000e+03,    3.70666e+00,    1.26180e+01,    3.81033e+01
   8.66000e+03,    3.70479e+00,    1.26077e+01,    3.81076e+01
   8.67000e+03,    3.70293e+00,    1.25974e+01,    3.81119e+01
   8.68000e+03,    3.70107e+00,    1.25872e+01,    3.81161e+01
   8.69000e+03,    3.69922e+00,    1.25770e+01,    3.81204e+01
   8.70000e+03,    3.69736e+00,    1.25667e+01,    3.81246e+01
   8.71000e+03,    3.69551e+00,    1.25566e+01,    3.81289e+01
   8.72000e+03,    3.69366e+00,    1.25464e+01,    3.81331e+01
   8.73000e+03,    3.69181e+00,    1.25363e+01,    3.81374e+01
   8.74000e+03,    3.68997e+00,    1.25261e+01,    3.81416e+01
   8.75000e+03,    3.68812e+00,    1.25160e+01,    3.81458e+01
   8.76000e+03,    3.68628e+00,    1.25060e+01,    3.81500e+01
   8.77000e+03,    3.68445e+00,    1.24959e+01,    3.81542e+01
   8.78000e+03,    3.68261e+00,    1.24859e+01,    3.81584e+01
   8.79000e+03,    3.68078e+00,    1.24758e+01,    3.81626e+01
   8.80000e+03,    3.67895e+00,    1.24659e+01,    3.81668e+01
   8.81000e+03,    3.67712e+00,    1.24559e+01,    3.81710e+01
   8.82000e+03,    3.67529e+00,    1.24459e+01,    3.81751e+01
   8.83000e+03,    3.67347e+00,    1.24360e+01,    3.81793e+01
   8.84000e+03,    3.67165e+00,    1.24261e+01,    3.81835e+01
   8.85000e+03,    3.66983e+00,    1.24162e+01,    3.81876e+01
   8.86000e+03,    3.66802e+00,    1.24063e+01,    3.81917e+01
   8.87000e+03,    3.66620e+00,    1.23965e+01,    3.81959e+01
   8.88000e+03,    3.66439e+00,    1.23866e+01,    3.82000e+01
   8.89000e+03,    3.66259e+00,    1.23768e+01,    3.82041e+01
   8.90000e+03,    3.66078e+00,    1.23670e+01,    3.82083e+01
   8.91000e+03,    3.65898e+00,    1.23572e+01,    3.82124e+01
   8.92000e+03,    3.65718e+00,    1.23475e+01,    3.82165e+01
   8.93000e+03,    3.65538e+00,    1.23378e+01,    3.82206e+01
   8.94000e+03,    3.65358e+00,    1.23281e+01,    3.82247e+01
   8.95000e+03,    3.65179e+00,    1.23184e+01,    3.82287e+01
   8.96000e+03,    3.65000e+00,    1.23087e+01,    3.82328e+01
   8.97000e+03,    3.64821e+00,    1.22990e+01,    3.82369e+01
   8.98000e+03,    3.64643e+00,    1.22894e+01,    3.82409e+01
   8.99000e+03,    3.64465e+00,    1.22798e+01,    3.82450e+01
   9.00000e+03,    3.64287e+00,    1.22702e+01,    3.82491e+01
   9.01000e+03,    3.64109e+00,    1.22606e+01,    3.82531e+01
   9.02000e+03,    3.63931e+00,    1.22511e+01,    3.82571e+01
   9.03000e+03,    3.63754e+00,    1.22415e+01,    3.82612e+01
   9.04000e+03,    3.63577e+00,    1.22320e+01,    3.82652e+01
   9.05000e+03,    3.63400e+00,    1.22225e+01,    3.82692e+01
   9.06000e+03,    3.63224e+00,    1.22130e+01,    3.82732e+01
   9.07000e+03,    3.63048e+00,    1.22036e+01,    3.82772e+01
   9.08000e+03,    3.62872e+00,    1.21941e+01,    3.82812e+01
   9.09000e+03,    3.62696e+00,    1.21847e+01,    3.82852e+01
   9.10000e+03,    3.62520e+00,    1.21753e+01,    3.82892e+01
   9.11000e+03,    3.62345e+00,    1.21659e+01,    3.82932e+01
   9.12000e+03,    3.62170e+00,    1.21565e+01,    3.82972e+01
   9.13000e+03,    3.61996e+00,    1.21472e+01,    3.83011e+01
   9.14000e+03,    3.61821e+00,    1.21378e+01,    3.83051e+01
   9.15000e+03,    3.61647e+00,    1.21285e+01,    3.83091e+01
   9.16000e+03,    3.61473e+00,    1.21192e+01,    3.83130e+01
   9.17000e+03,    3.61299e+00,    1.21100e+01,    3.83169e+01
   9.18000e+03,    3.61126e+00,    1.21007e+01,    3.83209e+01
   9.19000e+03,    3.60953e+00,    1.20915e+01,    3.83248e+01
   9.20000e+03,    3.60780e+00,    1.20823e+01,    3.83287e+01
   9.21000e+03,    3.60607e+00,    1.20730e+01,    3.83327e+01
   9.22000e+03,    3.60435e+00,    1.20639e+01,    3.83366e+01
   9.23000e+03,    3.60263e+00,    1.20547e+01,    3.83405e+01
   9.24000e+03,    3.60091e+00,    1.20456e+01,    3.83444e+01
   9.25000e+03,    3.59919e+00,    1.20364e+01,    3.83483e+01
   9.26000e+03,    3.59748e+00,    1.20273e+01,    3.83522e+01
   9.27000e+03,    3.59577e+00,    1.20182e+01,    3.83560e+01
   9.28000e+03,    3.59406e+00,    1.20091e+01,    3.83599e+01
   9.29000e+03,    3.59236e+00,    1.20001e+01,    3.83638e+01
   9.30000e+03,    3.59065e+00,    1.19910e+01,    3.83676e+01
   9.31000e+03,    3.58895e+00,    1.19820e+01,    3.83715e+01
   9.32000e+03,    3.58726e+00,    1.19730e+01,    3.83754e+01
   9.33000e+03,    3.58556e+00,    1.19640e+01,    3.83792e+01
   9.34000e+03,    3.58387e+00,    1.19550e+01,    3.83830e+01
   9.35000e+03,    3.58218e+00,    1.19461e+01,    3.83869e+01
   9.36000e+03,    3.58049e+00,    1.19372e+01,    3.83907e+01
   9.37000e+03,    3.57881e+00,    1.19282e+01,    3.83945e+01
   9.38000e+03,    3.57712e+00,    1.19193e+01,    3.83983e+01
   9.39000e+03,    3.57545e+00,    1.19104e+01,    3.84022e+01
   9.40000e+03,    3.57377e+00,    1.19016e+01,    3.84060e+01
   9.41000e+03,    3.57209e+00,    1.18927e+01,    3.84098e+01
   9.42000e+03,    3.57042e+00,    1.18839e+01,    3.84136e+01
   9.43000e+03,    3.56875e+00,    1.18751e+01,    3.84173e+01
   9.44000e+03,    3.56709e+00,    1.18663e+01,    3.84211e+01
   9.45000e+03,    3.56542e+00,    1.18575e+01,    3.84249e+01
   9.46000e+03,    3.56376e+00,    1.18487e+01,    3.84287e+01
   9.47000e+03,    3.56210e+00,    1.18400e+01,    3.84324e+01
   9.48000e+03,    3.56045e+00,    1.18312e+01,    3.84362e+01
   9.49000e+03,    3.55880e+00,    1.18225e+01,    3.84399e+01
   9.50000e+03,    3.55714e+00,    1.18138e+01,    3.84437e+01
   9.51000e+03,    3.55550e+00,    1.18051e+01,    3.84474e+01
   9.52000e+03,    3.55385e+00,    1.17965e+01,    3.84512e+01
   9.53000e+03,    3.55221e+00,    1.17878e+01,    3.84549e+01
   9.54000e+03,    3.55057e+00,    1.17792e+01,    3.84586e+01
   9.55000e+03,    3.54893e+00,    1.17706e+01,    3.84623e+01
   9.56000e+03,    3.54730e+00,    1.17620e+01,    3.84661e+01
   9.57000e+03,    3.54566e+00,    1.17534e+01,    3.84698e+01
   9.58000e+03,    3.54403e+00,    1.17448e+01,    3.84735e+01
   9.59000e+03,    3.54241e+00,    1.17363e+01,    3.84772e+01
   9.60000e+03,    3.54078e+00,    1.17277e+01,    3.84809e+01
   9.61000e+03,    3.53916e+00,    1.17192e+01,    3.84845e+01
   9.62000e+03,    3.53754e+00,    1.17107e+01,    3.84882e+01
   9.63000e+03,    3.53592e+00,    1.17022e+01,    3.84919e+01
   9.64000e+03,    3.53431e+00,    1.16938e+01,    3.84956e+01
   9.65000e+03,    3.53270e+00,    1.16853e+01,    3.84992e+01
   9.66000e+03,    3.53109e+00,    1.16769e+01,    3.85029e+01
   9.67000e+03,    3.52948e+00,    1.16684e+01,    3.85065e+01
   9.68000e+03,    3.52788e+00,    1.16600e+01,    3.85102e+01
   9.69000e+03,    3.52628e+00,    1.16516e+01,    3.85138e+01
   9.70000e+03,    3.52468e+00,    1.16433e+01,    3.85175e+01
   9.71000e+03,    3.52308e+00,    1.16349e+01,    3.85211e+01
   9.72000e+03,    3.52149e+00,    1.16265e+01,    3.85247e+01
   9.73000e+03,    3.51990e+00,    1.16182e+01,    3.85283e+01
   9.74000e+03,    3.51831e+00,    1.16099e+01,    3.85320e+01
   9.75000e+03,    3.51673e+00,    1.16016e+01,    3.85356e+01
   9.76000e+03,    3.51514e+00,    1.15933e+01,    3.85392e+01
   9.77000e+03,    3.51356e+00,    1.15850e+01,    3.85428e+01
   9.78000e+03,    3.51199e+00,    1.15768e+01,    3.85464e+01
   9.79000e+03,    3.51041e+00,    1.15686e+01,    3.85499e+01
   9.80000e+03,    3.50884e+00,    1.15603e+01,    3.85535e+01
   9.81000e+03,    3.50727e+00,    1.15521e+01,    3.85571e+01
   9.82000e+03,    3.50570e+00,    1.15439e+01,    3.85607e+01
   9.83000e+03,    3.50414e+00,    1.15358e+01,    3.85642e+01
   9.84000e+03,    3.50258e+00,    1.15276e+01,    3.85678e+01
   9.85000e+03,    3.50102e+00,    1.15194e+01,    3.85714e+01
   9.86000e+03,    3.49946e+00,    1.15113e+01,    3.85749e+01
   9.87000e+03,    3.49791e+00,    1.15032e+01,    3.85785e+01
   9.88000e+03,    3.49635e+00,    1.14951e+01,    3.85820e+01
   9.89000e+03,    3.49481e+00,    1.14870e+01,    3.85855e+01
   9.90000e+03,    3.49326e+00,    1.14789e+01,    3.85891e+01
   9.91000e+03,    3.49172e+00,    1.14709e+01,    3.85926e+01
   9.92000e+03,    3.49017e+00,    1.14628e+01,    3.85961e+01
   9.93000e+03,    3.48864e+00,    1.14548e+01,    3.85996e+01
   9.94000e+03,    3.48710e+00,    1.14468e+01,    3.86031e+01
   9.95000e+03,    3.48557e+00,    1.14388e+01,    3.86067e+01
   9.96000e+03,    3.48404e+00,    1.14308e+01,    3.86102e+01
   9.97000e+03,    3.48251e+00,    1.14228e+01,    3.86137e+01
   9.98000e+03,    3.48098e+00,    1.14149e+01,    3.86171e+01
   9.99000e+03,    3.47946e+00,    1.14069e+01,    3.86206e+01
   1.00000e+04,    3.47794e+00,    1.13990e+01,    3.86241e+01
   1.00100e+04,    3.47642e+00,    1.13911e+01,    3.86276e+01
   1.00200e+04,    3.47490e+00,    1.13832e+01,    3.86311e+01
   1.00300e+04,    3.47339e+00,    1.13753e+01,    3.86345e+01
   1.00400e+04,    3.47188e+00,    1.13674e+01,    3.86380e+01
   1.00500e+04,    3.47037e+00,    1.13596e+01,    3.86414e+01
   1.00600e+04,    3.46887e+00,    1.13517e+01,    3.86449e+01
   1.00700e+04,    3.46737e+00,    1.13439e+01,    3.86483e+01
   1.00800e+04,    3.46587e+00,    1.13361e+01,    3.86518e+01
   1.00900e+04,    3.46437e+00,    1.13283e+01,    3.86552e+01
   1.01000e+04,    3.46287e+00,    1.13205e+01,    3.86586e+01
   1.01100e+04,    3.46138e+00,    1.13127e+01,    3.86621e+01
   1.01200e+04,    3.45989e+00,    1.13050e+01,    3.86655e+01
   1.01300e+04,    3.45840e+00,    1.12972e+01,    3.86689e+01
   1.01400e+04,    3.45692e+00,    1.12895e+01,    3.86723e+01
   1.01500e+04,    3.45544e+00,    1.12818e+01,    3.86757e+01
   1.01600e+04,    3.45396e+00,    1.12741e+01,    3.86791e+01
   1.01700e+04,    3.45248e+00,    1.12664e+01,    3.86825e+01
   1.01800e+04,    3.45101e+00,    1.12587e+01,    3.86859e+01
   1.01900e+04,    3.44953e+00,    1.12510e+01,    3.86893e+01
   1.02000e+04,    3.44807e+00,    1.12434e+01,    3.86927e+01
   1.02100e+04,    3.44660e+00,    1.12357e+01,    3.86961e+01
   1.02200e+04,    3.44513e+00,    1.12281e+01,    3.86994e+01
   1.02300e+04,    3.44367e+00,    1.12205e+01,    3.87028e+01
   1.02400e+04,    3.44221e+00,    1.12129e+01,    3.87062e+01
   1.02500e+04,    3.44076e+00,    1.12053e+01,    3.87095e+01
   1.02600e+04,    3.43930e+00,    1.11978e+01,    3.87129e+01
   1.02700e+04,    3.43785e+00,    1.11902e+01,    3.87162e+01
   1.02800e+04,    3.43640e+00,    1.11827e+01,    3.87196e+01
   1.02900e+04,    3.43495e+00,    1.11751e+01,    3.87229e+01
   1.03000e+04,    3.43351e+00,    1.11676e+01,    3.87263e+01
   1.03100e+04,    3.43207e+00,    1.11601e+01,    3.87296e+01
   1.03200e+04,    3.43063e+00,    1.11526e+01,    3.87329e+01
   1.03300e+04,    3.42919e+00,    1.11452e+01,    3.87362e+01
   1.03400e+04,    3.42776e+00,    1.11377e+01,    3.87395e+01
   1.03500e+04,    3.42633e+00,    1.11302e+01,    3.87429e+01
   1.03600e+04,    3.42490e+00,    1.11228e+01,    3.87462e+01
   1.03700e+04,    3.42347e+00,    1.11154e+01,    3.87495e+01
   1.03800e+04,    3.42205e+00,    1.11080e+01,    3.87528e+01
   1.03900e+04,    3.42063e+00,    1.11006e+01,    3.87561e+01
   1.04000e+04,    3.41921e+00,    1.10932e+01,    3.87594e+01
   1.04100e+04,    3.41779e+00,    1.10858e+01,    3.87626e+01
   1.04200e+04,    3.41638e+00,    1.10785e+01,    3.87659e+01
   1.04300e+04,    3.41496e+00,    1.10711e+01,    3.87692e+01
   1.04400e+04,    3.41355e+00,    1.10638e+01,    3.87725e+01
   1.04500e+04,    3.41215e+00,    1.10565e+01,    3.87757e+01
   1.04600e+04,    3.41074e+00,    1.10491e+01,    3.87790e+01
   1.04700e+04,    3.40934e+00,    1.10419e+01,    3.87823e+01
   1.04800e+04,    3.40794e+00,    1.10346e+01,    3.87855e+01
   1.04900e+04,    3.40655e+00,    1.10273e+01,    3.87888e+01
   1.05000e+04,    3.40515e+00,    1.10200e+01,    3.87920e+01
   1.05100e+04,    3.40376e+00,    1.10128e+01,    3.87953e+01
   1.05200e+04,    3.40237e+00,    1.10056e+01,    3.87985e+01
   1.05300e+04,    3.40098e+00,    1.09983e+01,    3.88017e+01
   1.05400e+04,    3.39960e+00,    1.09911e+01,    3.88049e+01
   1.05500e+04,    3.39822e+00,    1.09839e+01,    3.88082e+01
   1.05600e+04,    3.39684e+00,    1.09767e+01,    3.88114e+01
   1.05700e+04,    3.39546e+00,    1.09696e+01,    3.88146e+01
   1.05800e+04,    3.39408e+00,    1.09624e+01,    3.88178e+01
   1.05900e+04,    3.39271e+00,    1.09553e+01,    3.88210e+01
   1.06000e+04,    3.39134e+00,    1.09481e+01,    3.88242e+01
   1.06100e+04,    3.38997e+00,    1.09410e+01,    3.88274e+01
   1.06200e+04,    3.38861e+00,    1.09339e+01,    3.88306e+01
   1.06300e+04,    3.38725e+00,    1.09268e+01,    3.88338e+01
   1.06400e+04,    3.38589e+00,    1.09197e+01,    3.88370e+01
   1.06500e+04,    3.38453e+00,    1.09126e+01,    3.88402e+01
   1.06600e+04,    3.38317e+00,    1.09056e+01,    3.88433e+01
   1.06700e+04,    3.38182e+00,    1.08985e+01,    3.88465e+01
   1.06800e+04,    3.38047e+00,    1.08915e+01,    3.88497e+01
   1.06900e+04,    3.37912e+00,    1.08845e+01,    3.88528e+01
   1.07000e+04,    3.37778e+00,    1.08774e+01,    3.88560e+01
   1.07100e+04,    3.37643e+00,    1.08704e+01,    3.88592e+01
   1.07200e+04,    3.37509e+00,    1.08635e+01,    3.88623e+01
   1.07300e+04,    3.37375e+00,    1.08565e+01,    3.88655e+01
   1.07400e+04,    3.37242e+00,    1.08495e+01,    3.88686e+01
   1.07500e+04,    3.37108e+00,    1.08425e+01,    3.88717e+01
   1.07600e+04,    3.36975e+00,    1.08356e+01,    3.88749e+01
   1.07700e+04,    3.36842e+00,    1.08287e+01,    3.88780e+01
   1.07800e+04,    3.36710e+00,    1.08218e+01,    3.88811e+01
   1.07900e+04,    3.36577e+00,    1.08148e+01,    3.88842e+01
   1.08000e+04,    3.36445e+00,    1.08079e+01,    3.88874e+01
   1.08100e+04,    3.36313e+00,    1.08011e+01,    3.88905e+01
   1.08200e+04,    3.36182e+00,    1.07942e+01,    3.88936e+01
   1.08300e+04,    3.36050e+00,    1.07873e+01,    3.88967e+01
   1.08400e+04,    3.35919e+00,    1.07805e+01,    3.88998e+01
   1.08500e+04,    3.35788e+00,    1.07736e+01,    3.89029e+01
   1.08600e+04,    3.35657e+00,    1.07668e+01,    3.89060e+01
   1.08700e+04,    3.35527e+00,    1.07600e+01,    3.89091e+01
   1.08800e+04,    3.35396e+00,    1.07532e+01,    3.89122e+01
   1.08900e+04,    3.35266e+00,    1.07464e+01,    3.89152e+01
   1.09000e+04,    3.35136e+00,    1.07396e+01,    3.89183e+01
   1.09100e+04,    3.35007e+00,    1.07328e+01,    3.89214e+01
   1.09200e+04,    3.34878e+00,    1.07261e+01,    3.89244e+01
   1.09300e+04,    3.34748e+00,    1.07193e+01,    3.89275e+01
   1.09400e+04,    3.34620e+00,    1.07126e+01,    3.89306e+01
   1.09500e+04,    3.34491e+00,    1.07058e+01,    3.89336e+01
   1.09600e+04,    3.34362e+00,    1.06991e+01,    3.89367e+01
   1.09700e+04,    3.34234e+00,    1.06924e+01,    3.89397e+01
   1.09800e+04,    3.34106e+00,    1.06857e+01,    3.89428e+01
   1.09900e+04,    3.33979e+00,    1.06790e+01,    3.89458e+01
   1.10000e+04,    3.33851e+00,    1.06724e+01,    3.89489e+01
   1.10100e+04,    3.33724e+00,    1.06657e+01,    3.89519e+01
   1.10200e+04,    3.33597e+00,    1.06591e+01,    3.89549e+01
   1.10300e+04,    3.33470e+00,    1.06524e+01,    3.89579e+01
   1.10400e+04,    3.33344e+00,    1.06458e+01,    3.89610e+01
   1.10500e+04,    3.33217e+00,    1.06392e+01,    3.89640e+01
   1.10600e+04,    3.33091e+00,    1.06326e+01,    3.89670e+01
   1.10700e+04,    3.32965e+00,    1.06260e+01,    3.89700e+01
   1.10800e+04,    3.32840e+00,    1.06194e+01,    3.89730e+01
   1.10900e+04,    3.32714e+00,    1.06128e+01,    3.89760e+01
   1.11000e+04,    3.32589e+00,    1.06062e+01,    3.89790e+01
   1.11100e+04,    3.32464e+00,    1.05997e+01,    3.89820e+01
   1.11200e+04,    3.32339e+00,    1.05931e+01,    3.89850e+01
   1.11300e+04,    3.32215e+00,    1.05866e+01,    3.89880e+01
   1.11400e+04,    3.32090e+00,    1.05801e+01,    3.89910e+01
   1.11500e+04,    3.31966e+00,    1.05736e+01,    3.89939e+01
   1.11600e+04,    3.31843e+00,    1.05671e+01,    3.89969e+01
   1.11700e+04,    3.31719e+00,    1.05606e+01,    3.89999e+01
   1.11800e+04,    3.31596e+00,    1.05541e+01,    3.90029e+01
   1.11900e+04,    3.31472e+00,    1.05476e+01,    3.90058e+01
   1.12000e+04,    3.31349e+00,    1.05412e+01,    3.90088e+01
   1.12100e+04,    3.31227e+00,    1.05347e+01,    3.90117e+01
   1.12200e+04,    3.31104e+00,    1.05283e+01,    3.90147e+01
   1.12300e+04,    3.30982e+00,    1.05219e+01,    3.90176e+01
   1.12400e+04,    3.30860e+00,    1.05155e+01,    3.90206e+01
   1.12500e+04,    3.30738e+00,    1.05090e+01,    3.90235e+01
   1.12600e+04,    3.30617e+00,    1.05027e+01,    3.90265e+01
   1.12700e+04,    3.30495e+00,    1.04963e+01,    3.90294e+01
   1.12800e+04,    3.30374e+00,    1.04899e+01,    3.90323e+01
   1.12900e+04,    3.30253e+00,    1.04835e+01,    3.90353e+01
   1.13000e+04,    3.30132e+00,    1.04772e+01,    3.90382e+01
   1.13100e+04,    3.30012e+00,    1.04708e+01,    3.90411e+01
   1.13200e+04,    3.29892e+00,    1.04645e+01,    3.90440e+01
   1.13300e+04,    3.29772e+00,    1.04582e+01,    3.90469e+01
   1.13400e+04,    3.29652e+00,    1.04518e+01,    3.90498e+01
   1.13500e+04,    3.29532e+00,    1.04455e+01,    3.90527e+01
   1.13600e+04,    3.29413e+00,    1.04392e+01,    3.90556e+01
   1.13700e+04,    3.29294e+00,    1.04330e+01,    3.90585e+01
   1.13800e+04,    3.29175e+00,    1.04267e+01,    3.90614e+01
   1.13900e+04,    3.29056e+00,    1.04204e+01,    3.90643e+01
   1.14000e+04,    3.28938e+00,    1.04142e+01,    3.90672e+01
   1.14100e+04,    3.28819e+00,    1.04079e+01,    3.90701e+01
   1.14200e+04,    3.28701e+00,    1.04017e+01,    3.90730e+01
   1.14300e+04,    3.28583e+00,    1.03955e+01,    3.90759e+01
   1.14400e+04,    3.28466e+00,    1.03892e+01,    3.90787e+01
   1.14500e+04,    3.28348e+00,    1.03830e+01,    3.90816e+01
   1.14600e+04,    3.28231e+00,    1.03768e+01,    3.90845e+01
   1.14700e+04,    3.28114e+00,    1.03707e+01,    3.90873e+01
   1.14800e+04,    3.27997e+00,    1.03645e+01,    3.90902e+01
   1.14900e+04,    3.27881e+00,    1.03583e+01,    3.90930e+01
   1.15000e+04,    3.27764e+00,    1.03522e+01,    3.90959e+01
   1.15100e+04,    3.27648e+00,    1.03460e+01,    3.90987e+01
   1.15200e+04,    3.27532e+00,    1.03399e+01,    3.91016e+01
   1.15300e+04,    3.27417e+00,    1.03338e+01,    3.91044e+01
   1.15400e+04,    3.27301e+00,    1.03276e+01,    3.91073e+01
   1.15500e+04,    3.27186e+00,    1.03215e+01,    3.91101e+01
   1.15600e+04,    3.27071e+00,    1.03154e+01,    3.91129e+01
   1.15700e+04,    3.26956e+00,    1.03093e+01,    3.91158e+01
   1.15800e+04,    3.26841e+00,    1.03033e+01,    3.91186e+01
   1.15900e+04,    3.26727e+00,    1.02972e+01,    3.91214e+01
   1.16000e+04,    3.26613e+00,    1.02911e+01,    3.91242e+01
   1.16100e+04,    3.26499e+00,    1.02851e+01,    3.91270e+01
   1.16200e+04,    3.26385e+00,    1.02790e+01,    3.91298e+01
   1.16300e+04,    3.26271e+00,    1.02730e+01,    3.91327e+01
   1.16400e+04,    3.26158e+00,    1.02670e+01,    3.91355e+01
   1.16500e+04,    3.26045e+00,    1.02610e+01,    3.91383e+01
   1.16600e+04,    3.25932e+00,    1.02550e+01,    3.91411e+01
   1.16700e+04,    3.25819e+00,    1.02490e+01,    3.91438e+01
   1.16800e+04,    3.25706e+00,    1.02430e+01,    3.91466e+01
   1.16900e+04,    3.25594e+00,    1.02370e+01,    3.91494e+01
   1.17000e+04,    3.25482e+00,    1.02310e+01,    3.91522e+01
   1.17100e+04,    3.25370e+00,    1.02251e+01,    3.91550e+01
   1.17200e+04,    3.25258e+00,    1.02191e+01,    3.91578e+01
   1.17300e+04,    3.25147e+00,    1.02132e+01,    3.91605e+01
   1.17400e+04,    3.25035e+00,    1.02073e+01,    3.91633e+01
   1.17500e+04,    3.24924e+00,    1.02013e+01,    3.91661e+01
   1.17600e+04,    3.24813e+00,    1.01954e+01,    3.91688e+01
   1.17700e+04,    3.24703e+00,    1.01895e+01,    3.91716e+01
   1.17800e+04,    3.24592e+00,    1.01836e+01,    3.91744e+01
   1.17900e+04,    3.24482e+00,    1.01777e+01,    3.91771e+01
   1.18000e+04,    3.24372e+00,    1.01719e+01,    3.91799e+01
   1.18100e+04,    3.24262e+00,    1.01660e+01,    3.91826e+01
   1.18200e+04,    3.24152e+00,    1.01601e+01,    3.91854e+01
   1.18300e+04,    3.24043e+00,    1.01543e+01,    3.91881e+01
   1.18400e+04,    3.23934e+00,    1.01485e+01,    3.91908e+01
   1.18500e+04,    3.23824e+00,    1.01426e+01,    3.91936e+01
   1.18600e+04,    3.23716e+00,    1.01368e+01,    3.91963e+01
   1.18700e+04,    3.23607e+00,    1.01310e+01,    3.91990e+01
   1.18800e+04,    3.23498e+00,    1.01252e+01,    3.92018e+01
   1.18900e+04,    3.23390e+00,    1.01194e+01,    3.92045e+01
   1.19000e+04,    3.23282e+00,    1.01136e+01,    3.92072e+01
   1.19100e+04,    3.23174e+00,    1.01078e+01,    3.92099e+01
   1.19200e+04,    3.23067e+00,    1.01021e+01,    3.92126e+01
   1.19300e+04,    3.22959e+00,    1.00963e+01,    3.92153e+01
   1.19400e+04,    3.22852e+00,    1.00905e+01,    3.92180e+01
   1.19500e+04,    3.22745e+00,    1.00848e+01,    3.92207e+01
   1.19600e+04,    3.22638e+00,    1.00791e+01,    3.92234e+01
   1.19700e+04,    3.22531e+00,    1.00733e+01,    3.92261e+01
   1.19800e+04,    3.22425e+00,    1.00676e+01,    3.92288e+01
   1.19900e+04,    3.22318e+00,    1.00619e+01,    3.92315e+01
   1.20000e+04,    3.22212e+00,    1.00562e+01,    3.92342e+01
   1.20100e+04,    3.22106e+00,    1.00505e+01,    3.92369e+01
   1.20200e+04,    3.22001e+00,    1.00448e+01,    3.92396e+01
   1.20300e+04,    3.21895e+00,    1.00392e+01,    3.92422e+01
   1.20400e+04,    3.21790e+00,    1.00335e+01,    3.92449e+01
   1.20500e+04,    3.21685e+00,    1.00278e+01,    3.92476e+01
   1.20600e+04,    3.21580e+00,    1.00222e+01,    3.92503e+01
   1.20700e+04,    3.21475e+00,    1.00166e+01,    3.92529e+01
   1.20800e+04,    3.21371e+00,    1.00109e+01,    3.92556e+01
   1.20900e+04,    3.21266e+00,    1.00053e+01,    3.92582e+01
   1.21000e+04,    3.21162e+00,    9.99969e+00,    3.92609e+01
   1.21100e+04,    3.21058e+00,    9.99409e+00,    3.92635e+01
   1.21200e+04,    3.20955e+00,    9.98849e+00,    3.92662e+01
   1.21300e+04,    3.20851e+00,    9.98290e+00,    3.92688e+01
   1.21400e+04,    3.20748e+00,    9.97732e+00,    3.92715e+01
   1.21500e+04,    3.20644e+00,    9.97175e+00,    3.92741e+01
   1.21600e+04,    3.20541e+00,    9.96618e+00,    3.92768e+01
   1.21700e+04,    3.20439e+00,    9.96063e+00,    3.92794e+01
   1.21800e+04,    3.20336e+00,    9.95508e+00,    3.92820e+01
   1.21900e+04,    3.20234e+00,    9.94954e+00,    3.92847e+01
   1.22000e+04,    3.20131e+00,    9.94401e+00,    3.92873e+01
   1.22100e+04,    3.20029e+00,    9.93849e+00,    3.92899e+01
   1.22200e+04,    3.19928e+00,    9.93297e+00,    3.92925e+01
   1.22300e+04,    3.19826e+00,    9.92747e+00,    3.92951e+01
   1.22400e+04,    3.19724e+00,    9.92197e+00,    3.92978e+01
   1.22500e+04,    3.19623e+00,    9.91648e+00,    3.93004e+01
   1.22600e+04,    3.19522e+00,    9.91100e+00,    3.93030e+01
   1.22700e+04,    3.19421e+00,    9.90552e+00,    3.93056e+01
   1.22800e+04,    3.19320e+00,    9.90006e+00,    3.93082e+01
   1.22900e+04,    3.19220e+00,    9.89460e+00,    3.93108e+01
   1.23000e+04,    3.19119e+00,    9.88915e+00,    3.93134e+01
   1.23100e+04,    3.19019e+00,    9.88371e+00,    3.93160e+01
   1.23200e+04,    3.18919e+00,    9.87828e+00,    3.93186e+01
   1.23300e+04,    3.18820e+00,    9.87285e+00,    3.93211e+01
   1.23400e+04,    3.18720e+00,    9.86743e+00,    3.93237e+01
   1.23500e+04,    3.18621e+00,    9.86202e+00,    3.93263e+01
   1.23600e+04,    3.18521e+00,    9.85662e+00,    3.93289e+01
   1.23700e+04,    3.18422e+00,    9.85123e+00,    3.93315e+01
   1.23800e+04,    3.18323e+00,    9.84584e+00,    3.93340e+01
   1.23900e+04,    3.18225e+00,    9.84047e+00,    3.93366e+01
   1.24000e+04,    3.18126e+00,    9.83510e+00,    3.93392e+01
   1.24100e+04,    3.18028e+00,    9.82973e+00,    3.93417e+01
   1.24200e+04,    3.17930e+00,    9.82438e+00,    3.93443e+01
   1.24300e+04,    3.17832e+00,    9.81903e+00,    3.93469e+01
   1.24400e+04,    3.17734e+00,    9.81369e+00,    3.93494e+01
   1.24500e+04,    3.17636e+00,    9.80836e+00,    3.93520e+01
   1.24600e+04,    3.17539e+00,    9.80304e+00,    3.93545e+01
   1.24700e+04,    3.17442e+00,    9.79773e+00,    3.93571e+01
   1.24800e+04,    3.17345e+00,    9.79242e+00,    3.93596e+01
   1.24900e+04,    3.17248e+00,    9.78712e+00,    3.93622e+01
   1.25000e+04,    3.17151e+00,    9.78183e+00,    3.93647e+01
   1.25100e+04,    3.17055e+00,    9.77654e+00,    3.93672e+01
   1.25200e+04,    3.16958e+00,    9.77126e+00,    3.93698e+01
   1.25300e+04,    3.16862e+00,    9.76600e+00,    3.93723e+01
   1.25400e+04,    3.16766e+00,    9.76073e+00,    3.93748e+01
   1.25500e+04,    3.16670e+00,    9.75548e+00,    3.93773e+01
   1.25600e+04,    3.16575e+00,    9.75023e+00,    3.93799e+01
   1.25700e+04,    3.16479e+00,    9.74500e+00,    3.93824e+01
   1.25800e+04,    3.16384e+00,    9.73976e+00,    3.93849e+01
   1.25900e+04,    3.16289e+00,    9.73454e+00,    3.93874e+01
   1.26000e+04,    3.16194e+00,    9.72933e+00,    3.93899e+01
   1.26100e+04,    3.16099e+00,    9.72412e+00,    3.93924e+01
   1.26200e+04,    3.16004e+00,    9.71892e+00,    3.93949e+01
   1.26300e+04,    3.15910e+00,    9.71372e+00,    3.93974e+01
   1.26400e+04,    3.15816e+00,    9.70854e+00,    3.93999e+01
   1.26500e+04,    3.15722e+00,    9.70336e+00,    3.94024e+01
   1.26600e+04,    3.15628e+00,    9.69819e+00,    3.94049e+01
   1.26700e+04,    3.15534e+00,    9.69302e+00,    3.94074e+01
   1.26800e+04,    3.15441e+00,    9.68787e+00,    3.94099e+01
   1.26900e+04,    3.15347e+00,    9.68272e+00,    3.94124e+01
   1.27000e+04,    3.15254e+00,    9.67758e+00,    3.94149e+01
   1.27100e+04,    3.15161e+00,    9.67244e+00,    3.94174e+01
   1.27200e+04,    3.15068e+00,    9.66732e+00,    3.94198e+01
   1.27300e+04,    3.14976e+00,    9.66220e+00,    3.94223e+01
   1.27400e+04,    3.14883e+00,    9.65708e+00,    3.94248e+01
   1.27500e+04,    3.14791e+00,    9.65198e+00,    3.94273e+01
   1.27600e+04,    3.14699e+00,    9.64688e+00,    3.94297e+01
   1.27700e+04,    3.14607e+00,    9.64179e+00,    3.94322e+01
   1.27800e+04,    3.14515e+00,    9.63671e+00,    3.94347e+01
   1.27900e+04,    3.14423e+00,    9.63163e+00,    3.94371e+01
   1.28000e+04,    3.14332e+00,    9.62656e+00,    3.94396e+01
   1.28100e+04,    3.14240e+00,    9.62150e+00,    3.94420e+01
   1.28200e+04,    3.14149e+00,    9.61645e+00,    3.94445e+01
   1.28300e+04,    3.14058e+00,    9.61140e+00,    3.94469e+01
   1.28400e+04,    3.13967e+00,    9.60636e+00,    3.94494e+01
   1.28500e+04,    3.13877e+00,    9.60133e+00,    3.94518e+01
   1.28600e+04,    3.13786e+00,    9.59630e+00,    3.94543e+01
   1.28700e+04,    3.13696e+00,    9.59128e+00,    3.94567e+01
   1.28800e+04,    3.13606e+00,    9.58627e+00,    3.94591e+01
   1.28900e+04,    3.13516e+00,    9.58127e+00,    3.94616e+01
   1.29000e+04,    3.13426e+00,    9.57627e+00,    3.94640e+01
   1.29100e+04,    3.13336e+00,    9.57128e+00,    3.94664e+01
   1.29200e+04,    3.13247e+00,    9.56630e+00,    3.94689e+01
   1.29300e+04,    3.13158e+00,    9.56132e+00,    3.94713e+01
   1.29400e+04,    3.13069e+00,    9.55635e+00,    3.94737e+01
   1.29500e+04,    3.12980e+00,    9.55139e+00,    3.94761e+01
   1.29600e+04,    3.12891e+00,    9.54643e+00,    3.94785e+01
   1.29700e+04,    3.12802e+00,    9.54149e+00,    3.94809e+01
   1.29800e+04,    3.12714e+00,    9.53654e+00,    3.94834e+01
   1.29900e+04,    3.12625e+00,    9.53161e+00,    3.94858e+01
   1.30000e+04,    3.12537e+00,    9.52668e+00,    3.94882e+01
   1.30100e+04,    3.12449e+00,    9.52176e+00,    3.94906e+01
   1.30200e+04,    3.12361e+00,    9.51685e+00,    3.94930e+01
   1.30300e+04,    3.12274e+00,    9.51194e+00,    3.94954e+01
   1.30400e+04,    3.12186e+00,    9.50704e+00,    3.94978e+01
   1.30500e+04,    3.12099e+00,    9.50215e+00,    3.95002e+01
   1.30600e+04,    3.12012e+00,    9.49726e+00,    3.95025e+01
   1.30700e+04,    3.11924e+00,    9.49238e+00,    3.95049e+01
   1.30800e+04,    3.11838e+00,    9.48751e+00,    3.95073e+01
   1.30900e+04,    3.11751e+00,    9.48264e+00,    3.95097e+01
   1.31000e+04,    3.11664e+00,    9.47778e+00,    3.95121e+01
   1.31100e+04,    3.11578e+00,    9.47293e+00,    3.95145e+01
   1.31200e+04,    3.11492e+00,    9.46809e+00,    3.95168e+01
   1.31300e+04,    3.11406e+00,    9.46325e+00,    3.95192e+01
   1.31400e+04,    3.11320e+00,    9.45841e+00,    3.95216e+01
   1.31500e+04,    3.11234e+00,    9.45359e+00,    3.95239e+01
   1.31600e+04,    3.11148e+00,    9.44877e+00,    3.95263e+01
   1.31700e+04,    3.11063e+00,    9.44396e+00,    3.95287e+01
   1.31800e+04,    3.10978e+00,    9.43915e+00,    3.95310e+01
   1.31900e+04,    3.10892e+00,    9.43435e+00,    3.95334e+01
   1.32000e+04,    3.10807e+00,    9.42956e+00,    3.95358e+01
   1.32100e+04,    3.10723e+00,    9.42478e+00,    3.95381e+01
   1.32200e+04,    3.10638e+00,    9.42000e+00,    3.95405e+01
   1.32300e+04,    3.10553e+00,    9.41522e+00,    3.95428e+01
   1.32400e+04,    3.10469e+00,    9.41046e+00,    3.95452e+01
   1.32500e+04,    3.10385e+00,    9.40570e+00,    3.95475e+01
   1.32600e+04,    3.10301e+00,    9.40095e+00,    3.95498e+01
   1.32700e+04,    3.10217e+00,    9.39620e+00,    3.95522e+01
   1.32800e+04,    3.10133e+00,    9.39146e+00,    3.95545e+01
   1.32900e+04,    3.10050e+00,    9.38673e+00,    3.95568e+01
   1.33000e+04,    3.09966e+00,    9.38200e+00,    3.95592e+01
   1.33100e+04,    3.09883e+00,    9.37728e+00,    3.95615e+01
   1.33200e+04,    3.09800e+00,    9.37256e+00,    3.95638e+01
   1.33300e+04,    3.09717e+00,    9.36786e+00,    3.95662e+01
   1.33400e+04,    3.09634e+00,    9.36316e+00,    3.95685e+01
   1.33500e+04,    3.09551e+00,    9.35846e+00,    3.95708e+01
   1.33600e+04,    3.09469e+00,    9.35377e+00,    3.95731e+01
   1.33700e+04,    3.09386e+00,    9.34909e+00,    3.95754e+01
   1.33800e+04,    3.09304e+00,    9.34442e+00,    3.95777e+01
   1.33900e+04,    3.09222e+00,    9.33975e+00,    3.95801e+01
   1.34000e+04,    3.09140e+00,    9.33508e+00,    3.95824e+01
   1.34100e+04,    3.09058e+00,    9.33043e+00,    3.95847e+01
   1.34200e+04,    3.08977e+00,    9.32578e+00,    3.95870e+01
   1.34300e+04,    3.08895e+00,    9.32114e+00,    3.95893e+01
   1.34400e+04,    3.08814e+00,    9.31650e+00,    3.95916e+01
   1.34500e+04,    3.08733e+00,    9.31187e+00,    3.95939e+01
   1.34600e+04,    3.08652e+00,    9.30724e+00,    3.95962e+01
   1.34700e+04,    3.08571e+00,    9.30262e+00,    3.95985e+01
   1.34800e+04,    3.08490e+00,    9.29801e+00,    3.96007e+01
   1.34900e+04,    3.08410e+00,    9.29341e+00,    3.96030e+01
   1.35000e+04,    3.08329e+00,    9.28881e+00,    3.96053e+01
   1.35100e+04,    3.08249e+00,    9.28421e+00,    3.96076e+01
   1.35200e+04,    3.08169e+00,    9.27962e+00,    3.96099e+01
   1.35300e+04,    3.08089e+00,    9.27504e+00,    3.96122e+01
   1.35400e+04,    3.08009e+00,    9.27047e+00,    3.96144e+01
   1.35500e+04,    3.07929e+00,    9.26590e+00,    3.96167e+01
   1.35600e+04,    3.07850e+00,    9.26134e+00,    3.96190e+01
   1.35700e+04,    3.07770e+00,    9.25678e+00,    3.96213e+01
   1.35800e+04,    3.07691e+00,    9.25223e+00,    3.96235e+01
   1.35900e+04,    3.07612e+00,    9.24769e+00,    3.96258e+01
   1.36000e+04,    3.07533e+00,    9.24315e+00,    3.96280e+01
   1.36100e+04,    3.07454e+00,    9.23862e+00,    3.96303e+01
   1.36200e+04,    3.07375e+00,    9.23409e+00,    3.96326e+01
   1.36300e+04,    3.07297e+00,    9.22957e+00,    3.96348e+01
   1.36400e+04,    3.07218e+00,    9.22506e+00,    3.96371e+01
   1.36500e+04,    3.07140e+00,    9.22055e+00,    3.96393e+01
   1.36600e+04,    3.07062e+00,    9.21605e+00,    3.96416e+01
   1.36700e+04,    3.06984e+00,    9.21155e+00,    3.96438e+01
   1.36800e+04,    3.06906e+00,    9.20706e+00,    3.96461e+01
   1.36900e+04,    3.06829e+00,    9.20258e+00,    3.96483e+01
   1.37000e+04,    3.06751e+00,    9.19810e+00,    3.96505e+01
   1.37100e+04,    3.06674e+00,    9.19363e+00,    3.96528e+01
   1.37200e+04,    3.06596e+00,    9.18916e+00,    3.96550e+01
   1.37300e+04,    3.06519e+00,    9.18470e+00,    3.96573e+01
   1.37400e+04,    3.06442e+00,    9.18025e+00,    3.96595e+01
   1.37500e+04,    3.06365e+00,    9.17580e+00,    3.96617e+01
   1.37600e+04,    3.06289e+00,    9.17136e+00,    3.96639e+01
   1.37700e+04,    3.06212e+00,    9.16692e+00,    3.96662e+01
   1.37800e+04,    3.06136e+00,    9.16249e+00,    3.96684e+01
   1.37900e+04,    3.06059e+00,    9.15806e+00,    3.96706e+01
   1.38000e+04,    3.05983e+00,    9.15365e+00,    3.96728e+01
   1.38100e+04,    3.05907e+00,    9.14923e+00,    3.96750e+01
   1.38200e+04,    3.05831e+00,    9.14483e+00,    3.96773e+01
   1.38300e+04,    3.05755e+00,    9.14042e+00,    3.96795e+01
   1.38400e+04,    3.05680e+00,    9.13603e+00,    3.96817e+01
   1.38500e+04,    3.05604e+00,    9.13164e+00,    3.96839e+01
   1.38600e+04,    3.05529e+00,    9.12726e+00,    3.96861e+01
   1.38700e+04,    3.05454e+00,    9.12288e+00,    3.96883e+01
   1.38800e+04,    3.05379e+00,    9.11851e+00,    3.96905e+01
   1.38900e+04,    3.05304e+00,    9.11414e+00,    3.96927e+01
   1.39000e+04,    3.05229e+00,    9.10978e+00,    3.96949e+01
   1.39100e+04,    3.05154e+00,    9.10542e+00,    3.96971e+01
   1.39200e+04,    3.05080e+00,    9.10107e+00,    3.96993e+01
   1.39300e+04,    3.05006e+00,    9.09673e+00,    3.97015e+01
   1.39400e+04,    3.04931e+00,    9.09239e+00,    3.97037e+01
   1.39500e+04,    3.04857e+00,    9.08806e+00,    3.97058e+01
   1.39600e+04,    3.04783e+00,    9.08373e+00,    3.97080e+01
   1.39700e+04,    3.04709e+00,    9.07941e+00,    3.97102e+01
   1.39800e+04,    3.04636e+00,    9.07510e+00,    3.97124e+01
   1.39900e+04,    3.04562e+00,    9.07079e+00,    3.97146e+01
   1.40000e+04,    3.04489e+00,    9.06648e+00,    3.97167e+01
   1.40100e+04,    3.04415e+00,    9.06219e+00,    3.97189e+01
   1.40200e+04,    3.04342e+00,    9.05789e+00,    3.97211e+01
   1.40300e+04,    3.04269e+00,    9.05361e+00,    3.97233e+01
   1.40400e+04,    3.04196e+00,    9.04932e+00,    3.97254e+01
   1.40500e+04,    3.04123e+00,    9.04505e+00,    3.97276e+01
   1.40600e+04,    3.04051e+00,    9.04078e+00,    3.97298e+01
   1.40700e+04,    3.03978e+00,    9.03651e+00,    3.97319e+01
   1.40800e+04,    3.03906e+00,    9.03225e+00,    3.97341e+01
   1.40900e+04,    3.03834e+00,    9.02800e+00,    3.97362e+01
   1.41000e+04,    3.03761e+00,    9.02375e+00,    3.97384e+01
   1.41100e+04,    3.03689e+00,    9.01951e+00,    3.97405e+01
   1.41200e+04,    3.03618e+00,    9.01527e+00,    3.97427e+01
   1.41300e+04,    3.03546e+00,    9.01104e+00,    3.97448e+01
   1.41400e+04,    3.03474e+00,    9.00681e+00,    3.97470e+01
   1.41500e+04,    3.03403e+00,    9.00259e+00,    3.97491e+01
   1.41600e+04,    3.03331e+00,    8.99838e+00,    3.97513e+01
   1.41700e+04,    3.03260e+00,    8.99417e+00,    3.97534e+01
   1.41800e+04,    3.03189e+00,    8.98996e+00,    3.97556e+01
   1.41900e+04,    3.03118e+00,    8.98576e+00,    3.97577e+01
   1.42000e+04,    3.03047e+00,    8.98157e+00,    3.97598e+01
   1.42100e+04,    3.02977e+00,    8.97738e+00,    3.97620e+01
   1.42200e+04,    3.02906e+00,    8.97320e+00,    3.97641e+01
   1.42300e+04,    3.02835e+00,    8.96902e+00,    3.97662e+01
   1.42400e+04,    3.02765e+00,    8.96485e+00,    3.97684e+01
   1.42500e+04,    3.02695e+00,    8.96068e+00,    3.97705e+01
   1.42600e+04,    3.02625e+00,    8.95652e+00,    3.97726e+01
   1.42700e+04,    3.02555e+00,    8.95237e+00,    3.97747e+01
   1.42800e+04,    3.02485e+00,    8.94822e+00,    3.97768e+01
   1.42900e+04,    3.02415e+00,    8.94407e+00,    3.97790e+01
   1.43000e+04,    3.02346e+00,    8.93993e+00,    3.97811e+01
   1.43100e+04,    3.02276e+00,    8.93579e+00,    3.97832e+01
   1.43200e+04,    3.02207e+00,    8.93167e+00,    3.97853e+01
   1.43300e+04,    3.02138e+00,    8.92754e+00,    3.97874e+01
   1.43400e+04,    3.02069e+00,    8.92342e+00,    3.97895e+01
   1.43500e+04,    3.02000e+00,    8.91931e+00,    3.97916e+01
   1.43600e+04,    3.01931e+00,    8.91520e+00,    3.97937e+01
   1.43700e+04,    3.01862e+00,    8.91110e+00,    3.97958e+01
   1.43800e+04,    3.01794e+00,    8.90700e+00,    3.97979e+01
   1.43900e+04,    3.01725e+00,    8.90291e+00,    3.98000e+01
   1.44000e+04,    3.01657e+00,    8.89882e+00,    3.98021e+01
   1.44100e+04,    3.01588e+00,    8.89474e+00,    3.98042e+01
   1.44200e+04,    3.01520e+00,    8.89066e+00,    3.98063e+01
   1.44300e+04,    3.01452e+00,    8.88659e+00,    3.98084e+01
   1.44400e+04,    3.01385e+00,    8.88252e+00,    3.98105e+01
   1.44500e+04,    3.01317e+00,    8.87846e+00,    3.98126e+01
   1.44600e+04,    3.01249e+00,    8.87440e+00,    3.98147e+01
   1.44700e+04,    3.01182e+00,    8.87035e+00,    3.98167e+01
   1.44800e+04,    3.01114e+00,    8.86631e+00,    3.98188e+01
   1.44900e+04,    3.01047e+00,    8.86226e+00,    3.98209e+01
   1.45000e+04,    3.00980e+00,    8.85823e+00,    3.98230e+01
   1.45100e+04,    3.00913e+00,    8.85420e+00,    3.98250e+01
   1.45200e+04,    3.00846e+00,    8.85017e+00,    3.98271e+01
   1.45300e+04,    3.00779e+00,    8.84615e+00,    3.98292e+01
   1.45400e+04,    3.00713e+00,    8.84214e+00,    3.98313e+01
   1.45500e+04,    3.00646e+00,    8.83812e+00,    3.98333e+01
   1.45600e+04,    3.00580e+00,    8.83412e+00,    3.98354e+01
   1.45700e+04,    3.00513e+00,    8.83012e+00,    3.98375e+01
   1.45800e+04,    3.00447e+00,    8.82612e+00,    3.98395e+01
   1.45900e+04,    3.00381e+00,    8.82213e+00,    3.98416e+01
   1.46000e+04,    3.00315e+00,    8.81815e+00,    3.98436e+01
   1.46100e+04,    3.00249e+00,    8.81417e+00,    3.98457e+01
   1.46200e+04,    3.00183e+00,    8.81019e+00,    3.98477e+01
   1.46300e+04,    3.00118e+00,    8.80622e+00,    3.98498e+01
   1.46400e+04,    3.00052e+00,    8.80226e+00,    3.98518e+01
   1.46500e+04,    2.99987e+00,    8.79830e+00,    3.98539e+01
   1.46600e+04,    2.99922e+00,    8.79434e+00,    3.98559e+01
   1.46700e+04,    2.99857e+00,    8.79039e+00,    3.98580e+01
   1.46800e+04,    2.99792e+00,    8.78644e+00,    3.98600e+01
   1.46900e+04,    2.99727e+00,    8.78250e+00,    3.98621e+01
   1.47000e+04,    2.99662e+00,    8.77857e+00,    3.98641e+01
   1.47100e+04,    2.99597e+00,    8.77464e+00,    3.98662e+01
   1.47200e+04,    2.99533e+00,    8.77071e+00,    3.98682e+01
   1.47300e+04,    2.99468e+00,    8.76679e+00,    3.98702e+01
   1.47400e+04,    2.99404e+00,    8.76287e+00,    3.98723e+01
   1.47500e+04,    2.99340e+00,    8.75896e+00,    3.98743e+01
   1.47600e+04,    2.99276e+00,    8.75506e+00,    3.98763e+01
   1.47700e+04,    2.99212e+00,    8.75115e+00,    3.98783e+01
   1.47800e+04,    2.99148e+00,    8.74726e+00,    3.98804e+01
   1.47900e+04,    2.99084e+00,    8.74337e+00,    3.98824e+01
   1.48000e+04,    2.99020e+00,    8.73948e+00,    3.98844e+01
   1.48100e+04,    2.98957e+00,    8.73560e+00,    3.98864e+01
   1.48200e+04,    2.98893e+00,    8.73172e+00,    3.98884e+01
   1.48300e+04,    2.98830e+00,    8.72785e+00,    3.98905e+01
   1.48400e+04,    2.98767e+00,    8.72398e+00,    3.98925e+01
   1.48500e+04,    2.98704e+00,    8.72012e+00,    3.98945e+01
   1.48600e+04,    2.98641e+00,    8.71626e+00,    3.98965e+01
   1.48700e+04,    2.98578e+00,    8.71240e+00,    3.98985e+01
   1.48800e+04,    2.98515e+00,    8.70856e+00,    3.99005e+01
   1.48900e+04,    2.98452e+00,    8.70471e+00,    3.99025e+01
   1.49000e+04,    2.98390e+00,    8.70087e+00,    3.99045e+01
   1.49100e+04,    2.98327e+00,    8.69704e+00,    3.99065e+01
   1.49200e+04,    2.98265e+00,    8.69321e+00,    3.99085e+01
   1.49300e+04,    2.98203e+00,    8.68938e+00,    3.99105e+01
   1.49400e+04,    2.98141e+00,    8.68556e+00,    3.99125e+01
   1.49500e+04,    2.98079e+00,    8.68175e+00,    3.99145e+01
   1.49600e+04,    2.98017e+00,    8.67794e+00,    3.99165e+01
   1.49700e+04,    2.97955e+00,    8.67413e+00,    3.99185e+01
   1.49800e+04,    2.97893e+00,    8.67033e+00,    3.99205e+01
   1.49900e+04,    2.97832e+00,    8.66653e+00,    3.99225e+01
   1.50000e+04,    2.97770e+00,    8.66274e+00,    3.99245e+01
