# Cantera Thermodynamics
# Mechanism diatomic
# Computation done on 12-Feb-2020 07:55:57
# Species CH(A)
# Standard state T =    2.98150e+02 (K) P =    1.01325e+05 (Pa)
# C_P           2.91748e+01 (J/K mol)
# H             5.97334e+05 (J/mol)
# S             1.83036e+02 (J/K mol)
# C_P/R         3.50893e+00
# H/RT          2.40962e+02
# S/R           2.20141e+01
#     T            C_P/R           H/RT            S/R
   2.00000e+02,    3.50945e+00,    3.57493e+02,    2.06134e+01
   2.10000e+02,    3.50834e+00,    3.40636e+02,    2.07846e+01
   2.20000e+02,    3.50782e+00,    3.25312e+02,    2.09478e+01
   2.30000e+02,    3.50766e+00,    3.11321e+02,    2.11037e+01
   2.40000e+02,    3.50771e+00,    2.98495e+02,    2.12530e+01
   2.50000e+02,    3.50786e+00,    2.86696e+02,    2.13962e+01
   2.60000e+02,    3.50807e+00,    2.75804e+02,    2.15338e+01
   2.70000e+02,    3.50829e+00,    2.65719e+02,    2.16662e+01
   2.80000e+02,    3.50852e+00,    2.56354e+02,    2.17938e+01
   2.90000e+02,    3.50874e+00,    2.47635e+02,    2.19169e+01
   3.00000e+02,    3.50897e+00,    2.39498e+02,    2.20359e+01
   3.10000e+02,    3.50921e+00,    2.31885e+02,    2.21509e+01
   3.20000e+02,    3.50949e+00,    2.24748e+02,    2.22623e+01
   3.30000e+02,    3.50981e+00,    2.18044e+02,    2.23703e+01
   3.40000e+02,    3.51020e+00,    2.11734e+02,    2.24751e+01
   3.50000e+02,    3.51067e+00,    2.05785e+02,    2.25769e+01
   3.60000e+02,    3.51123e+00,    2.00166e+02,    2.26758e+01
   3.70000e+02,    3.51190e+00,    1.94851e+02,    2.27720e+01
   3.80000e+02,    3.51270e+00,    1.89816e+02,    2.28657e+01
   3.90000e+02,    3.51364e+00,    1.85039e+02,    2.29569e+01
   4.00000e+02,    3.51474e+00,    1.80501e+02,    2.30459e+01
   4.10000e+02,    3.51599e+00,    1.76184e+02,    2.31327e+01
   4.20000e+02,    3.51742e+00,    1.72073e+02,    2.32174e+01
   4.30000e+02,    3.51902e+00,    1.68153e+02,    2.33002e+01
   4.40000e+02,    3.52082e+00,    1.64412e+02,    2.33811e+01
   4.50000e+02,    3.52281e+00,    1.60836e+02,    2.34603e+01
   4.60000e+02,    3.52499e+00,    1.57417e+02,    2.35377e+01
   4.70000e+02,    3.52738e+00,    1.54142e+02,    2.36136e+01
   4.80000e+02,    3.52998e+00,    1.51004e+02,    2.36879e+01
   4.90000e+02,    3.53278e+00,    1.47995e+02,    2.37607e+01
   5.00000e+02,    3.53580e+00,    1.45106e+02,    2.38321e+01
   5.10000e+02,    3.53902e+00,    1.42330e+02,    2.39021e+01
   5.20000e+02,    3.54245e+00,    1.39661e+02,    2.39709e+01
   5.30000e+02,    3.54610e+00,    1.37092e+02,    2.40384e+01
   5.40000e+02,    3.54995e+00,    1.34619e+02,    2.41047e+01
   5.50000e+02,    3.55401e+00,    1.32236e+02,    2.41699e+01
   5.60000e+02,    3.55827e+00,    1.29939e+02,    2.42340e+01
   5.70000e+02,    3.56274e+00,    1.27721e+02,    2.42970e+01
   5.80000e+02,    3.56740e+00,    1.25581e+02,    2.43590e+01
   5.90000e+02,    3.57226e+00,    1.23513e+02,    2.44200e+01
   6.00000e+02,    3.57732e+00,    1.21514e+02,    2.44801e+01
   6.10000e+02,    3.58256e+00,    1.19580e+02,    2.45393e+01
   6.20000e+02,    3.58798e+00,    1.17710e+02,    2.45976e+01
   6.30000e+02,    3.59359e+00,    1.15898e+02,    2.46550e+01
   6.40000e+02,    3.59937e+00,    1.14143e+02,    2.47117e+01
   6.50000e+02,    3.60532e+00,    1.12443e+02,    2.47675e+01
   6.60000e+02,    3.61143e+00,    1.10794e+02,    2.48226e+01
   6.70000e+02,    3.61771e+00,    1.09194e+02,    2.48769e+01
   6.80000e+02,    3.62414e+00,    1.07642e+02,    2.49306e+01
   6.90000e+02,    3.63072e+00,    1.06134e+02,    2.49835e+01
   7.00000e+02,    3.63745e+00,    1.04670e+02,    2.50358e+01
   7.10000e+02,    3.64431e+00,    1.03247e+02,    2.50875e+01
   7.20000e+02,    3.65131e+00,    1.01864e+02,    2.51385e+01
   7.30000e+02,    3.65844e+00,    1.00518e+02,    2.51889e+01
   7.40000e+02,    3.66569e+00,    9.92094e+01,    2.52387e+01
   7.50000e+02,    3.67306e+00,    9.79355e+01,    2.52880e+01
   7.60000e+02,    3.68054e+00,    9.66953e+01,    2.53367e+01
   7.70000e+02,    3.68813e+00,    9.54873e+01,    2.53849e+01
   7.80000e+02,    3.69582e+00,    9.43105e+01,    2.54325e+01
   7.90000e+02,    3.70361e+00,    9.31635e+01,    2.54796e+01
   8.00000e+02,    3.71149e+00,    9.20453e+01,    2.55263e+01
   8.10000e+02,    3.71946e+00,    9.09548e+01,    2.55724e+01
   8.20000e+02,    3.72751e+00,    8.98910e+01,    2.56181e+01
   8.30000e+02,    3.73563e+00,    8.88529e+01,    2.56633e+01
   8.40000e+02,    3.74383e+00,    8.78397e+01,    2.57081e+01
   8.50000e+02,    3.75210e+00,    8.68504e+01,    2.57525e+01
   8.60000e+02,    3.76042e+00,    8.58842e+01,    2.57964e+01
   8.70000e+02,    3.76881e+00,    8.49403e+01,    2.58399e+01
   8.80000e+02,    3.77725e+00,    8.40179e+01,    2.58831e+01
   8.90000e+02,    3.78574e+00,    8.31164e+01,    2.59258e+01
   9.00000e+02,    3.79428e+00,    8.22350e+01,    2.59681e+01
   9.10000e+02,    3.80286e+00,    8.13730e+01,    2.60101e+01
   9.20000e+02,    3.81148e+00,    8.05299e+01,    2.60517e+01
   9.30000e+02,    3.82013e+00,    7.97050e+01,    2.60930e+01
   9.40000e+02,    3.82881e+00,    7.88978e+01,    2.61339e+01
   9.50000e+02,    3.83752e+00,    7.81076e+01,    2.61744e+01
   9.60000e+02,    3.84626e+00,    7.73340e+01,    2.62147e+01
   9.70000e+02,    3.85501e+00,    7.65765e+01,    2.62546e+01
   9.80000e+02,    3.86379e+00,    7.58345e+01,    2.62941e+01
   9.90000e+02,    3.87258e+00,    7.51075e+01,    2.63334e+01
   1.00000e+03,    3.88138e+00,    7.43952e+01,    2.63724e+01
   1.01000e+03,    3.88921e+00,    7.36971e+01,    2.64110e+01
   1.02000e+03,    3.89720e+00,    7.30128e+01,    2.64494e+01
   1.03000e+03,    3.90534e+00,    7.23418e+01,    2.64875e+01
   1.04000e+03,    3.91361e+00,    7.16838e+01,    2.65252e+01
   1.05000e+03,    3.92200e+00,    7.10384e+01,    2.65627e+01
   1.06000e+03,    3.93051e+00,    7.04053e+01,    2.65999e+01
   1.07000e+03,    3.93910e+00,    6.97840e+01,    2.66369e+01
   1.08000e+03,    3.94779e+00,    6.91744e+01,    2.66736e+01
   1.09000e+03,    3.95655e+00,    6.85760e+01,    2.67100e+01
   1.10000e+03,    3.96538e+00,    6.79886e+01,    2.67462e+01
   1.11000e+03,    3.97426e+00,    6.74119e+01,    2.67821e+01
   1.12000e+03,    3.98319e+00,    6.68455e+01,    2.68178e+01
   1.13000e+03,    3.99216e+00,    6.62892e+01,    2.68532e+01
   1.14000e+03,    4.00117e+00,    6.57428e+01,    2.68884e+01
   1.15000e+03,    4.01020e+00,    6.52060e+01,    2.69234e+01
   1.16000e+03,    4.01925e+00,    6.46785e+01,    2.69582e+01
   1.17000e+03,    4.02831e+00,    6.41600e+01,    2.69927e+01
   1.18000e+03,    4.03738e+00,    6.36505e+01,    2.70270e+01
   1.19000e+03,    4.04646e+00,    6.31496e+01,    2.70612e+01
   1.20000e+03,    4.05553e+00,    6.26571e+01,    2.70951e+01
   1.21000e+03,    4.06460e+00,    6.21728e+01,    2.71287e+01
   1.22000e+03,    4.07366e+00,    6.16966e+01,    2.71622e+01
   1.23000e+03,    4.08270e+00,    6.12281e+01,    2.71955e+01
   1.24000e+03,    4.09173e+00,    6.07673e+01,    2.72286e+01
   1.25000e+03,    4.10073e+00,    6.03139e+01,    2.72615e+01
   1.26000e+03,    4.10971e+00,    5.98678e+01,    2.72942e+01
   1.27000e+03,    4.11866e+00,    5.94288e+01,    2.73268e+01
   1.28000e+03,    4.12758e+00,    5.89968e+01,    2.73591e+01
   1.29000e+03,    4.13647e+00,    5.85714e+01,    2.73913e+01
   1.30000e+03,    4.14532e+00,    5.81527e+01,    2.74232e+01
   1.31000e+03,    4.15413e+00,    5.77405e+01,    2.74550e+01
   1.32000e+03,    4.16291e+00,    5.73346e+01,    2.74867e+01
   1.33000e+03,    4.17164e+00,    5.69348e+01,    2.75181e+01
   1.34000e+03,    4.18033e+00,    5.65411e+01,    2.75494e+01
   1.35000e+03,    4.18898e+00,    5.61533e+01,    2.75805e+01
   1.36000e+03,    4.19758e+00,    5.57712e+01,    2.76114e+01
   1.37000e+03,    4.20613e+00,    5.53948e+01,    2.76422e+01
   1.38000e+03,    4.21464e+00,    5.50239e+01,    2.76728e+01
   1.39000e+03,    4.22309e+00,    5.46584e+01,    2.77033e+01
   1.40000e+03,    4.23150e+00,    5.42982e+01,    2.77336e+01
   1.41000e+03,    4.23985e+00,    5.39431e+01,    2.77638e+01
   1.42000e+03,    4.24815e+00,    5.35931e+01,    2.77938e+01
   1.43000e+03,    4.25640e+00,    5.32481e+01,    2.78236e+01
   1.44000e+03,    4.26459e+00,    5.29079e+01,    2.78533e+01
   1.45000e+03,    4.27273e+00,    5.25725e+01,    2.78828e+01
   1.46000e+03,    4.28081e+00,    5.22417e+01,    2.79122e+01
   1.47000e+03,    4.28884e+00,    5.19154e+01,    2.79415e+01
   1.48000e+03,    4.29682e+00,    5.15937e+01,    2.79706e+01
   1.49000e+03,    4.30473e+00,    5.12763e+01,    2.79995e+01
   1.50000e+03,    4.31259e+00,    5.09631e+01,    2.80284e+01
   1.51000e+03,    4.32040e+00,    5.06542e+01,    2.80570e+01
   1.52000e+03,    4.32814e+00,    5.03494e+01,    2.80856e+01
   1.53000e+03,    4.33583e+00,    5.00486e+01,    2.81140e+01
   1.54000e+03,    4.34347e+00,    4.97518e+01,    2.81423e+01
   1.55000e+03,    4.35104e+00,    4.94589e+01,    2.81704e+01
   1.56000e+03,    4.35856e+00,    4.91698e+01,    2.81984e+01
   1.57000e+03,    4.36602e+00,    4.88844e+01,    2.82263e+01
   1.58000e+03,    4.37342e+00,    4.86026e+01,    2.82540e+01
   1.59000e+03,    4.38077e+00,    4.83245e+01,    2.82816e+01
   1.60000e+03,    4.38806e+00,    4.80499e+01,    2.83091e+01
   1.61000e+03,    4.39529e+00,    4.77787e+01,    2.83365e+01
   1.62000e+03,    4.40247e+00,    4.75109e+01,    2.83637e+01
   1.63000e+03,    4.40959e+00,    4.72465e+01,    2.83908e+01
   1.64000e+03,    4.41665e+00,    4.69853e+01,    2.84178e+01
   1.65000e+03,    4.42366e+00,    4.67273e+01,    2.84447e+01
   1.66000e+03,    4.43061e+00,    4.64725e+01,    2.84714e+01
   1.67000e+03,    4.43750e+00,    4.62208e+01,    2.84981e+01
   1.68000e+03,    4.44434e+00,    4.59721e+01,    2.85246e+01
   1.69000e+03,    4.45112e+00,    4.57264e+01,    2.85510e+01
   1.70000e+03,    4.45785e+00,    4.54836e+01,    2.85773e+01
   1.71000e+03,    4.46452e+00,    4.52437e+01,    2.86034e+01
   1.72000e+03,    4.47114e+00,    4.50066e+01,    2.86295e+01
   1.73000e+03,    4.47771e+00,    4.47723e+01,    2.86554e+01
   1.74000e+03,    4.48422e+00,    4.45408e+01,    2.86813e+01
   1.75000e+03,    4.49068e+00,    4.43119e+01,    2.87070e+01
   1.76000e+03,    4.49708e+00,    4.40857e+01,    2.87326e+01
   1.77000e+03,    4.50343e+00,    4.38620e+01,    2.87581e+01
   1.78000e+03,    4.50973e+00,    4.36409e+01,    2.87835e+01
   1.79000e+03,    4.51598e+00,    4.34223e+01,    2.88087e+01
   1.80000e+03,    4.52218e+00,    4.32062e+01,    2.88339e+01
   1.81000e+03,    4.52832e+00,    4.29925e+01,    2.88590e+01
   1.82000e+03,    4.53441e+00,    4.27812e+01,    2.88840e+01
   1.83000e+03,    4.54046e+00,    4.25722e+01,    2.89088e+01
   1.84000e+03,    4.54645e+00,    4.23655e+01,    2.89336e+01
   1.85000e+03,    4.55239e+00,    4.21611e+01,    2.89582e+01
   1.86000e+03,    4.55828e+00,    4.19589e+01,    2.89828e+01
   1.87000e+03,    4.56413e+00,    4.17589e+01,    2.90072e+01
   1.88000e+03,    4.56992e+00,    4.15611e+01,    2.90316e+01
   1.89000e+03,    4.57567e+00,    4.13654e+01,    2.90559e+01
   1.90000e+03,    4.58137e+00,    4.11718e+01,    2.90800e+01
   1.91000e+03,    4.58702e+00,    4.09802e+01,    2.91041e+01
   1.92000e+03,    4.59262e+00,    4.07907e+01,    2.91281e+01
   1.93000e+03,    4.59818e+00,    4.06032e+01,    2.91519e+01
   1.94000e+03,    4.60369e+00,    4.04176e+01,    2.91757e+01
   1.95000e+03,    4.60916e+00,    4.02339e+01,    2.91994e+01
   1.96000e+03,    4.61458e+00,    4.00522e+01,    2.92230e+01
   1.97000e+03,    4.61995e+00,    3.98723e+01,    2.92465e+01
   1.98000e+03,    4.62528e+00,    3.96943e+01,    2.92699e+01
   1.99000e+03,    4.63056e+00,    3.95181e+01,    2.92932e+01
   2.00000e+03,    4.63581e+00,    3.93436e+01,    2.93164e+01
   2.01000e+03,    4.64100e+00,    3.91710e+01,    2.93396e+01
   2.02000e+03,    4.64616e+00,    3.90001e+01,    2.93626e+01
   2.03000e+03,    4.65127e+00,    3.88308e+01,    2.93856e+01
   2.04000e+03,    4.65634e+00,    3.86633e+01,    2.94084e+01
   2.05000e+03,    4.66136e+00,    3.84974e+01,    2.94312e+01
   2.06000e+03,    4.66635e+00,    3.83332e+01,    2.94539e+01
   2.07000e+03,    4.67129e+00,    3.81706e+01,    2.94765e+01
   2.08000e+03,    4.67619e+00,    3.80095e+01,    2.94990e+01
   2.09000e+03,    4.68106e+00,    3.78500e+01,    2.95215e+01
   2.10000e+03,    4.68588e+00,    3.76921e+01,    2.95438e+01
   2.11000e+03,    4.69066e+00,    3.75357e+01,    2.95661e+01
   2.12000e+03,    4.69540e+00,    3.73808e+01,    2.95883e+01
   2.13000e+03,    4.70010e+00,    3.72273e+01,    2.96104e+01
   2.14000e+03,    4.70477e+00,    3.70753e+01,    2.96324e+01
   2.15000e+03,    4.70939e+00,    3.69248e+01,    2.96544e+01
   2.16000e+03,    4.71398e+00,    3.67757e+01,    2.96762e+01
   2.17000e+03,    4.71853e+00,    3.66279e+01,    2.96980e+01
   2.18000e+03,    4.72304e+00,    3.64815e+01,    2.97197e+01
   2.19000e+03,    4.72752e+00,    3.63365e+01,    2.97414e+01
   2.20000e+03,    4.73196e+00,    3.61929e+01,    2.97629e+01
   2.21000e+03,    4.73636e+00,    3.60505e+01,    2.97844e+01
   2.22000e+03,    4.74072e+00,    3.59095e+01,    2.98058e+01
   2.23000e+03,    4.74505e+00,    3.57697e+01,    2.98271e+01
   2.24000e+03,    4.74935e+00,    3.56312e+01,    2.98483e+01
   2.25000e+03,    4.75361e+00,    3.54940e+01,    2.98695e+01
   2.26000e+03,    4.75783e+00,    3.53580e+01,    2.98906e+01
   2.27000e+03,    4.76202e+00,    3.52232e+01,    2.99116e+01
   2.28000e+03,    4.76618e+00,    3.50896e+01,    2.99325e+01
   2.29000e+03,    4.77030e+00,    3.49572e+01,    2.99534e+01
   2.30000e+03,    4.77439e+00,    3.48259e+01,    2.99742e+01
   2.31000e+03,    4.77844e+00,    3.46959e+01,    2.99949e+01
   2.32000e+03,    4.78247e+00,    3.45669e+01,    3.00156e+01
   2.33000e+03,    4.78645e+00,    3.44391e+01,    3.00361e+01
   2.34000e+03,    4.79041e+00,    3.43124e+01,    3.00566e+01
   2.35000e+03,    4.79434e+00,    3.41868e+01,    3.00771e+01
   2.36000e+03,    4.79823e+00,    3.40622e+01,    3.00975e+01
   2.37000e+03,    4.80209e+00,    3.39388e+01,    3.01177e+01
   2.38000e+03,    4.80592e+00,    3.38163e+01,    3.01380e+01
   2.39000e+03,    4.80972e+00,    3.36950e+01,    3.01581e+01
   2.40000e+03,    4.81349e+00,    3.35746e+01,    3.01782e+01
   2.41000e+03,    4.81722e+00,    3.34553e+01,    3.01982e+01
   2.42000e+03,    4.82093e+00,    3.33370e+01,    3.02182e+01
   2.43000e+03,    4.82461e+00,    3.32196e+01,    3.02381e+01
   2.44000e+03,    4.82826e+00,    3.31033e+01,    3.02579e+01
   2.45000e+03,    4.83187e+00,    3.29878e+01,    3.02777e+01
   2.46000e+03,    4.83546e+00,    3.28734e+01,    3.02974e+01
   2.47000e+03,    4.83902e+00,    3.27599e+01,    3.03170e+01
   2.48000e+03,    4.84255e+00,    3.26473e+01,    3.03365e+01
   2.49000e+03,    4.84606e+00,    3.25357e+01,    3.03560e+01
   2.50000e+03,    4.84953e+00,    3.24249e+01,    3.03755e+01
   2.51000e+03,    4.85298e+00,    3.23151e+01,    3.03948e+01
   2.52000e+03,    4.85640e+00,    3.22061e+01,    3.04141e+01
   2.53000e+03,    4.85979e+00,    3.20980e+01,    3.04334e+01
   2.54000e+03,    4.86315e+00,    3.19908e+01,    3.04525e+01
   2.55000e+03,    4.86649e+00,    3.18844e+01,    3.04717e+01
   2.56000e+03,    4.86980e+00,    3.17788e+01,    3.04907e+01
   2.57000e+03,    4.87308e+00,    3.16742e+01,    3.05097e+01
   2.58000e+03,    4.87634e+00,    3.15703e+01,    3.05286e+01
   2.59000e+03,    4.87957e+00,    3.14672e+01,    3.05475e+01
   2.60000e+03,    4.88277e+00,    3.13650e+01,    3.05663e+01
   2.61000e+03,    4.88595e+00,    3.12635e+01,    3.05851e+01
   2.62000e+03,    4.88910e+00,    3.11628e+01,    3.06038e+01
   2.63000e+03,    4.89223e+00,    3.10629e+01,    3.06224e+01
   2.64000e+03,    4.89533e+00,    3.09638e+01,    3.06410e+01
   2.65000e+03,    4.89841e+00,    3.08654e+01,    3.06595e+01
   2.66000e+03,    4.90146e+00,    3.07678e+01,    3.06779e+01
   2.67000e+03,    4.90449e+00,    3.06710e+01,    3.06963e+01
   2.68000e+03,    4.90750e+00,    3.05748e+01,    3.07147e+01
   2.69000e+03,    4.91048e+00,    3.04794e+01,    3.07330e+01
   2.70000e+03,    4.91343e+00,    3.03847e+01,    3.07512e+01
   2.71000e+03,    4.91636e+00,    3.02907e+01,    3.07694e+01
   2.72000e+03,    4.91927e+00,    3.01975e+01,    3.07875e+01
   2.73000e+03,    4.92215e+00,    3.01049e+01,    3.08055e+01
   2.74000e+03,    4.92501e+00,    3.00130e+01,    3.08235e+01
   2.75000e+03,    4.92785e+00,    2.99217e+01,    3.08415e+01
   2.76000e+03,    4.93067e+00,    2.98312e+01,    3.08594e+01
   2.77000e+03,    4.93346e+00,    2.97413e+01,    3.08772e+01
   2.78000e+03,    4.93623e+00,    2.96521e+01,    3.08950e+01
   2.79000e+03,    4.93897e+00,    2.95635e+01,    3.09127e+01
   2.80000e+03,    4.94170e+00,    2.94755e+01,    3.09304e+01
   2.81000e+03,    4.94440e+00,    2.93882e+01,    3.09480e+01
   2.82000e+03,    4.94708e+00,    2.93016e+01,    3.09656e+01
   2.83000e+03,    4.94974e+00,    2.92155e+01,    3.09831e+01
   2.84000e+03,    4.95237e+00,    2.91301e+01,    3.10006e+01
   2.85000e+03,    4.95499e+00,    2.90452e+01,    3.10180e+01
   2.86000e+03,    4.95758e+00,    2.89610e+01,    3.10353e+01
   2.87000e+03,    4.96015e+00,    2.88774e+01,    3.10526e+01
   2.88000e+03,    4.96270e+00,    2.87943e+01,    3.10699e+01
   2.89000e+03,    4.96523e+00,    2.87119e+01,    3.10871e+01
   2.90000e+03,    4.96774e+00,    2.86300e+01,    3.11043e+01
   2.91000e+03,    4.97023e+00,    2.85487e+01,    3.11214e+01
   2.92000e+03,    4.97269e+00,    2.84679e+01,    3.11384e+01
   2.93000e+03,    4.97514e+00,    2.83878e+01,    3.11554e+01
   2.94000e+03,    4.97757e+00,    2.83081e+01,    3.11724e+01
   2.95000e+03,    4.97997e+00,    2.82291e+01,    3.11893e+01
   2.96000e+03,    4.98236e+00,    2.81505e+01,    3.12061e+01
   2.97000e+03,    4.98472e+00,    2.80725e+01,    3.12230e+01
   2.98000e+03,    4.98707e+00,    2.79950e+01,    3.12397e+01
   2.99000e+03,    4.98939e+00,    2.79181e+01,    3.12564e+01
   3.00000e+03,    4.99170e+00,    2.78417e+01,    3.12731e+01
   3.01000e+03,    4.99399e+00,    2.77658e+01,    3.12897e+01
   3.02000e+03,    4.99625e+00,    2.76904e+01,    3.13063e+01
   3.03000e+03,    4.99850e+00,    2.76155e+01,    3.13228e+01
   3.04000e+03,    5.00073e+00,    2.75411e+01,    3.13393e+01
   3.05000e+03,    5.00294e+00,    2.74672e+01,    3.13557e+01
   3.06000e+03,    5.00513e+00,    2.73938e+01,    3.13721e+01
   3.07000e+03,    5.00730e+00,    2.73208e+01,    3.13884e+01
   3.08000e+03,    5.00945e+00,    2.72484e+01,    3.14047e+01
   3.09000e+03,    5.01159e+00,    2.71764e+01,    3.14209e+01
   3.10000e+03,    5.01370e+00,    2.71049e+01,    3.14371e+01
   3.11000e+03,    5.01580e+00,    2.70339e+01,    3.14533e+01
   3.12000e+03,    5.01788e+00,    2.69633e+01,    3.14694e+01
   3.13000e+03,    5.01994e+00,    2.68932e+01,    3.14854e+01
   3.14000e+03,    5.02198e+00,    2.68236e+01,    3.15015e+01
   3.15000e+03,    5.02400e+00,    2.67544e+01,    3.15174e+01
   3.16000e+03,    5.02601e+00,    2.66856e+01,    3.15334e+01
   3.17000e+03,    5.02800e+00,    2.66173e+01,    3.15492e+01
   3.18000e+03,    5.02997e+00,    2.65494e+01,    3.15651e+01
   3.19000e+03,    5.03192e+00,    2.64819e+01,    3.15809e+01
   3.20000e+03,    5.03385e+00,    2.64149e+01,    3.15966e+01
   3.21000e+03,    5.03577e+00,    2.63483e+01,    3.16123e+01
   3.22000e+03,    5.03767e+00,    2.62821e+01,    3.16280e+01
   3.23000e+03,    5.03955e+00,    2.62163e+01,    3.16436e+01
   3.24000e+03,    5.04141e+00,    2.61510e+01,    3.16592e+01
   3.25000e+03,    5.04326e+00,    2.60860e+01,    3.16747e+01
   3.26000e+03,    5.04509e+00,    2.60215e+01,    3.16902e+01
   3.27000e+03,    5.04690e+00,    2.59573e+01,    3.17057e+01
   3.28000e+03,    5.04870e+00,    2.58936e+01,    3.17211e+01
   3.29000e+03,    5.05048e+00,    2.58302e+01,    3.17365e+01
   3.30000e+03,    5.05224e+00,    2.57673e+01,    3.17518e+01
   3.31000e+03,    5.05398e+00,    2.57047e+01,    3.17671e+01
   3.32000e+03,    5.05571e+00,    2.56425e+01,    3.17823e+01
   3.33000e+03,    5.05742e+00,    2.55807e+01,    3.17976e+01
   3.34000e+03,    5.05912e+00,    2.55192e+01,    3.18127e+01
   3.35000e+03,    5.06079e+00,    2.54582e+01,    3.18279e+01
   3.36000e+03,    5.06246e+00,    2.53975e+01,    3.18429e+01
   3.37000e+03,    5.06410e+00,    2.53371e+01,    3.18580e+01
   3.38000e+03,    5.06573e+00,    2.52771e+01,    3.18730e+01
   3.39000e+03,    5.06734e+00,    2.52175e+01,    3.18880e+01
   3.40000e+03,    5.06894e+00,    2.51583e+01,    3.19029e+01
   3.41000e+03,    5.07052e+00,    2.50993e+01,    3.19178e+01
   3.42000e+03,    5.07208e+00,    2.50408e+01,    3.19326e+01
   3.43000e+03,    5.07363e+00,    2.49826e+01,    3.19474e+01
   3.44000e+03,    5.07516e+00,    2.49247e+01,    3.19622e+01
   3.45000e+03,    5.07667e+00,    2.48672e+01,    3.19769e+01
   3.46000e+03,    5.07817e+00,    2.48100e+01,    3.19916e+01
   3.47000e+03,    5.07965e+00,    2.47531e+01,    3.20063e+01
   3.48000e+03,    5.08112e+00,    2.46966e+01,    3.20209e+01
   3.49000e+03,    5.08257e+00,    2.46404e+01,    3.20355e+01
   3.50000e+03,    5.08401e+00,    2.45845e+01,    3.20500e+01
   3.51000e+03,    5.08543e+00,    2.45289e+01,    3.20646e+01
   3.52000e+03,    5.08683e+00,    2.44737e+01,    3.20790e+01
   3.53000e+03,    5.08822e+00,    2.44188e+01,    3.20935e+01
   3.54000e+03,    5.08959e+00,    2.43642e+01,    3.21079e+01
   3.55000e+03,    5.09095e+00,    2.43099e+01,    3.21222e+01
   3.56000e+03,    5.09229e+00,    2.42559e+01,    3.21365e+01
   3.57000e+03,    5.09362e+00,    2.42022e+01,    3.21508e+01
   3.58000e+03,    5.09493e+00,    2.41489e+01,    3.21651e+01
   3.59000e+03,    5.09622e+00,    2.40958e+01,    3.21793e+01
   3.60000e+03,    5.09750e+00,    2.40430e+01,    3.21935e+01
   3.61000e+03,    5.09877e+00,    2.39905e+01,    3.22076e+01
   3.62000e+03,    5.10002e+00,    2.39383e+01,    3.22217e+01
   3.63000e+03,    5.10125e+00,    2.38864e+01,    3.22358e+01
   3.64000e+03,    5.10247e+00,    2.38348e+01,    3.22498e+01
   3.65000e+03,    5.10367e+00,    2.37835e+01,    3.22638e+01
   3.66000e+03,    5.10486e+00,    2.37325e+01,    3.22778e+01
   3.67000e+03,    5.10603e+00,    2.36817e+01,    3.22917e+01
   3.68000e+03,    5.10719e+00,    2.36313e+01,    3.23056e+01
   3.69000e+03,    5.10833e+00,    2.35811e+01,    3.23195e+01
   3.70000e+03,    5.10946e+00,    2.35311e+01,    3.23333e+01
   3.71000e+03,    5.11057e+00,    2.34815e+01,    3.23471e+01
   3.72000e+03,    5.11167e+00,    2.34321e+01,    3.23608e+01
   3.73000e+03,    5.11275e+00,    2.33830e+01,    3.23746e+01
   3.74000e+03,    5.11382e+00,    2.33341e+01,    3.23883e+01
   3.75000e+03,    5.11487e+00,    2.32855e+01,    3.24019e+01
   3.76000e+03,    5.11591e+00,    2.32372e+01,    3.24155e+01
   3.77000e+03,    5.11694e+00,    2.31892e+01,    3.24291e+01
   3.78000e+03,    5.11794e+00,    2.31413e+01,    3.24427e+01
   3.79000e+03,    5.11894e+00,    2.30938e+01,    3.24562e+01
   3.80000e+03,    5.11992e+00,    2.30465e+01,    3.24697e+01
   3.81000e+03,    5.12088e+00,    2.29994e+01,    3.24832e+01
   3.82000e+03,    5.12183e+00,    2.29526e+01,    3.24966e+01
   3.83000e+03,    5.12276e+00,    2.29061e+01,    3.25100e+01
   3.84000e+03,    5.12368e+00,    2.28598e+01,    3.25233e+01
   3.85000e+03,    5.12459e+00,    2.28137e+01,    3.25367e+01
   3.86000e+03,    5.12548e+00,    2.27679e+01,    3.25499e+01
   3.87000e+03,    5.12635e+00,    2.27223e+01,    3.25632e+01
   3.88000e+03,    5.12721e+00,    2.26769e+01,    3.25764e+01
   3.89000e+03,    5.12806e+00,    2.26318e+01,    3.25896e+01
   3.90000e+03,    5.12889e+00,    2.25870e+01,    3.26028e+01
   3.91000e+03,    5.12971e+00,    2.25423e+01,    3.26159e+01
   3.92000e+03,    5.13051e+00,    2.24979e+01,    3.26290e+01
   3.93000e+03,    5.13130e+00,    2.24537e+01,    3.26421e+01
   3.94000e+03,    5.13207e+00,    2.24097e+01,    3.26552e+01
   3.95000e+03,    5.13283e+00,    2.23660e+01,    3.26682e+01
   3.96000e+03,    5.13357e+00,    2.23225e+01,    3.26811e+01
   3.97000e+03,    5.13430e+00,    2.22792e+01,    3.26941e+01
   3.98000e+03,    5.13501e+00,    2.22361e+01,    3.27070e+01
   3.99000e+03,    5.13571e+00,    2.21932e+01,    3.27199e+01
   4.00000e+03,    5.13640e+00,    2.21506e+01,    3.27328e+01
   4.01000e+03,    5.13707e+00,    2.21082e+01,    3.27456e+01
   4.02000e+03,    5.13773e+00,    2.20660e+01,    3.27584e+01
   4.03000e+03,    5.13837e+00,    2.20239e+01,    3.27711e+01
   4.04000e+03,    5.13900e+00,    2.19822e+01,    3.27839e+01
   4.05000e+03,    5.13961e+00,    2.19406e+01,    3.27966e+01
   4.06000e+03,    5.14021e+00,    2.18992e+01,    3.28093e+01
   4.07000e+03,    5.14079e+00,    2.18580e+01,    3.28219e+01
   4.08000e+03,    5.14136e+00,    2.18170e+01,    3.28345e+01
   4.09000e+03,    5.14192e+00,    2.17763e+01,    3.28471e+01
   4.10000e+03,    5.14246e+00,    2.17357e+01,    3.28597e+01
   4.11000e+03,    5.14298e+00,    2.16953e+01,    3.28722e+01
   4.12000e+03,    5.14350e+00,    2.16551e+01,    3.28847e+01
   4.13000e+03,    5.14399e+00,    2.16152e+01,    3.28972e+01
   4.14000e+03,    5.14448e+00,    2.15754e+01,    3.29096e+01
   4.15000e+03,    5.14494e+00,    2.15358e+01,    3.29220e+01
   4.16000e+03,    5.14540e+00,    2.14964e+01,    3.29344e+01
   4.17000e+03,    5.14584e+00,    2.14572e+01,    3.29468e+01
   4.18000e+03,    5.14626e+00,    2.14182e+01,    3.29591e+01
   4.19000e+03,    5.14667e+00,    2.13793e+01,    3.29714e+01
   4.20000e+03,    5.14707e+00,    2.13407e+01,    3.29836e+01
   4.21000e+03,    5.14745e+00,    2.13022e+01,    3.29959e+01
   4.22000e+03,    5.14782e+00,    2.12639e+01,    3.30081e+01
   4.23000e+03,    5.14817e+00,    2.12258e+01,    3.30203e+01
   4.24000e+03,    5.14851e+00,    2.11879e+01,    3.30324e+01
   4.25000e+03,    5.14883e+00,    2.11502e+01,    3.30446e+01
   4.26000e+03,    5.14914e+00,    2.11126e+01,    3.30567e+01
   4.27000e+03,    5.14944e+00,    2.10752e+01,    3.30687e+01
   4.28000e+03,    5.14972e+00,    2.10380e+01,    3.30808e+01
   4.29000e+03,    5.14998e+00,    2.10010e+01,    3.30928e+01
   4.30000e+03,    5.15023e+00,    2.09641e+01,    3.31048e+01
   4.31000e+03,    5.15047e+00,    2.09274e+01,    3.31168e+01
   4.32000e+03,    5.15069e+00,    2.08909e+01,    3.31287e+01
   4.33000e+03,    5.15090e+00,    2.08546e+01,    3.31406e+01
   4.34000e+03,    5.15109e+00,    2.08184e+01,    3.31525e+01
   4.35000e+03,    5.15127e+00,    2.07824e+01,    3.31643e+01
   4.36000e+03,    5.15144e+00,    2.07465e+01,    3.31762e+01
   4.37000e+03,    5.15159e+00,    2.07108e+01,    3.31880e+01
   4.38000e+03,    5.15172e+00,    2.06753e+01,    3.31997e+01
   4.39000e+03,    5.15184e+00,    2.06399e+01,    3.32115e+01
   4.40000e+03,    5.15195e+00,    2.06047e+01,    3.32232e+01
   4.41000e+03,    5.15204e+00,    2.05697e+01,    3.32349e+01
   4.42000e+03,    5.15212e+00,    2.05348e+01,    3.32466e+01
   4.43000e+03,    5.15218e+00,    2.05001e+01,    3.32582e+01
   4.44000e+03,    5.15223e+00,    2.04655e+01,    3.32698e+01
   4.45000e+03,    5.15226e+00,    2.04311e+01,    3.32814e+01
   4.46000e+03,    5.15228e+00,    2.03969e+01,    3.32930e+01
   4.47000e+03,    5.15228e+00,    2.03627e+01,    3.33045e+01
   4.48000e+03,    5.15227e+00,    2.03288e+01,    3.33161e+01
   4.49000e+03,    5.15224e+00,    2.02950e+01,    3.33275e+01
   4.50000e+03,    5.15220e+00,    2.02613e+01,    3.33390e+01
   4.51000e+03,    5.15215e+00,    2.02278e+01,    3.33504e+01
   4.52000e+03,    5.15208e+00,    2.01945e+01,    3.33619e+01
   4.53000e+03,    5.15200e+00,    2.01613e+01,    3.33732e+01
   4.54000e+03,    5.15190e+00,    2.01282e+01,    3.33846e+01
   4.55000e+03,    5.15178e+00,    2.00953e+01,    3.33959e+01
   4.56000e+03,    5.15165e+00,    2.00625e+01,    3.34072e+01
   4.57000e+03,    5.15151e+00,    2.00299e+01,    3.34185e+01
   4.58000e+03,    5.15135e+00,    1.99974e+01,    3.34298e+01
   4.59000e+03,    5.15118e+00,    1.99651e+01,    3.34410e+01
   4.60000e+03,    5.15099e+00,    1.99329e+01,    3.34522e+01
   4.61000e+03,    5.15079e+00,    1.99008e+01,    3.34634e+01
   4.62000e+03,    5.15057e+00,    1.98689e+01,    3.34746e+01
   4.63000e+03,    5.15034e+00,    1.98371e+01,    3.34857e+01
   4.64000e+03,    5.15009e+00,    1.98054e+01,    3.34968e+01
   4.65000e+03,    5.14983e+00,    1.97739e+01,    3.35079e+01
   4.66000e+03,    5.14955e+00,    1.97425e+01,    3.35190e+01
   4.67000e+03,    5.14926e+00,    1.97113e+01,    3.35300e+01
   4.68000e+03,    5.14896e+00,    1.96802e+01,    3.35410e+01
   4.69000e+03,    5.14863e+00,    1.96492e+01,    3.35520e+01
   4.70000e+03,    5.14830e+00,    1.96183e+01,    3.35630e+01
   4.71000e+03,    5.14795e+00,    1.95876e+01,    3.35739e+01
   4.72000e+03,    5.14758e+00,    1.95570e+01,    3.35848e+01
   4.73000e+03,    5.14720e+00,    1.95266e+01,    3.35957e+01
   4.74000e+03,    5.14680e+00,    1.94962e+01,    3.36066e+01
   4.75000e+03,    5.14639e+00,    1.94660e+01,    3.36175e+01
   4.76000e+03,    5.14596e+00,    1.94359e+01,    3.36283e+01
   4.77000e+03,    5.14552e+00,    1.94060e+01,    3.36391e+01
   4.78000e+03,    5.14507e+00,    1.93761e+01,    3.36499e+01
   4.79000e+03,    5.14459e+00,    1.93464e+01,    3.36606e+01
   4.80000e+03,    5.14411e+00,    1.93168e+01,    3.36713e+01
   4.81000e+03,    5.14360e+00,    1.92874e+01,    3.36820e+01
   4.82000e+03,    5.14309e+00,    1.92580e+01,    3.36927e+01
   4.83000e+03,    5.14255e+00,    1.92288e+01,    3.37034e+01
   4.84000e+03,    5.14201e+00,    1.91997e+01,    3.37140e+01
   4.85000e+03,    5.14144e+00,    1.91707e+01,    3.37246e+01
   4.86000e+03,    5.14087e+00,    1.91418e+01,    3.37352e+01
   4.87000e+03,    5.14027e+00,    1.91131e+01,    3.37458e+01
   4.88000e+03,    5.13966e+00,    1.90845e+01,    3.37563e+01
   4.89000e+03,    5.13904e+00,    1.90559e+01,    3.37668e+01
   4.90000e+03,    5.13840e+00,    1.90275e+01,    3.37773e+01
   4.91000e+03,    5.13775e+00,    1.89993e+01,    3.37878e+01
   4.92000e+03,    5.13707e+00,    1.89711e+01,    3.37983e+01
   4.93000e+03,    5.13639e+00,    1.89430e+01,    3.38087e+01
   4.94000e+03,    5.13569e+00,    1.89151e+01,    3.38191e+01
   4.95000e+03,    5.13497e+00,    1.88872e+01,    3.38295e+01
   4.96000e+03,    5.13424e+00,    1.88595e+01,    3.38399e+01
   4.97000e+03,    5.13349e+00,    1.88319e+01,    3.38502e+01
   4.98000e+03,    5.13273e+00,    1.88044e+01,    3.38605e+01
   4.99000e+03,    5.13195e+00,    1.87770e+01,    3.38708e+01
   5.00000e+03,    5.13116e+00,    1.87497e+01,    3.38811e+01
   5.01000e+03,    5.13035e+00,    1.87225e+01,    3.38913e+01
   5.02000e+03,    5.12952e+00,    1.86954e+01,    3.39016e+01
   5.03000e+03,    5.12868e+00,    1.86685e+01,    3.39118e+01
   5.04000e+03,    5.12783e+00,    1.86416e+01,    3.39220e+01
   5.05000e+03,    5.12695e+00,    1.86148e+01,    3.39321e+01
   5.06000e+03,    5.12607e+00,    1.85882e+01,    3.39423e+01
   5.07000e+03,    5.12516e+00,    1.85616e+01,    3.39524e+01
   5.08000e+03,    5.12424e+00,    1.85352e+01,    3.39625e+01
   5.09000e+03,    5.12331e+00,    1.85088e+01,    3.39726e+01
   5.10000e+03,    5.12236e+00,    1.84826e+01,    3.39826e+01
   5.11000e+03,    5.12139e+00,    1.84564e+01,    3.39926e+01
   5.12000e+03,    5.12041e+00,    1.84304e+01,    3.40027e+01
   5.13000e+03,    5.11941e+00,    1.84044e+01,    3.40126e+01
   5.14000e+03,    5.11840e+00,    1.83786e+01,    3.40226e+01
   5.15000e+03,    5.11737e+00,    1.83528e+01,    3.40326e+01
   5.16000e+03,    5.11632e+00,    1.83272e+01,    3.40425e+01
   5.17000e+03,    5.11526e+00,    1.83016e+01,    3.40524e+01
   5.18000e+03,    5.11418e+00,    1.82762e+01,    3.40623e+01
   5.19000e+03,    5.11309e+00,    1.82508e+01,    3.40721e+01
   5.20000e+03,    5.11198e+00,    1.82256e+01,    3.40820e+01
   5.21000e+03,    5.11085e+00,    1.82004e+01,    3.40918e+01
   5.22000e+03,    5.10971e+00,    1.81753e+01,    3.41016e+01
   5.23000e+03,    5.10855e+00,    1.81503e+01,    3.41114e+01
   5.24000e+03,    5.10738e+00,    1.81254e+01,    3.41211e+01
   5.25000e+03,    5.10619e+00,    1.81006e+01,    3.41309e+01
   5.26000e+03,    5.10498e+00,    1.80759e+01,    3.41406e+01
   5.27000e+03,    5.10376e+00,    1.80513e+01,    3.41503e+01
   5.28000e+03,    5.10252e+00,    1.80268e+01,    3.41600e+01
   5.29000e+03,    5.10127e+00,    1.80024e+01,    3.41696e+01
   5.30000e+03,    5.09999e+00,    1.79780e+01,    3.41792e+01
   5.31000e+03,    5.09871e+00,    1.79538e+01,    3.41889e+01
   5.32000e+03,    5.09740e+00,    1.79296e+01,    3.41984e+01
   5.33000e+03,    5.09608e+00,    1.79055e+01,    3.42080e+01
   5.34000e+03,    5.09475e+00,    1.78815e+01,    3.42176e+01
   5.35000e+03,    5.09339e+00,    1.78576e+01,    3.42271e+01
   5.36000e+03,    5.09202e+00,    1.78338e+01,    3.42366e+01
   5.37000e+03,    5.09064e+00,    1.78101e+01,    3.42461e+01
   5.38000e+03,    5.08924e+00,    1.77864e+01,    3.42556e+01
   5.39000e+03,    5.08782e+00,    1.77629e+01,    3.42650e+01
   5.40000e+03,    5.08638e+00,    1.77394e+01,    3.42744e+01
   5.41000e+03,    5.08493e+00,    1.77160e+01,    3.42839e+01
   5.42000e+03,    5.08346e+00,    1.76927e+01,    3.42932e+01
   5.43000e+03,    5.08198e+00,    1.76695e+01,    3.43026e+01
   5.44000e+03,    5.08048e+00,    1.76464e+01,    3.43120e+01
   5.45000e+03,    5.07896e+00,    1.76233e+01,    3.43213e+01
   5.46000e+03,    5.07742e+00,    1.76003e+01,    3.43306e+01
   5.47000e+03,    5.07587e+00,    1.75774e+01,    3.43399e+01
   5.48000e+03,    5.07430e+00,    1.75546e+01,    3.43492e+01
   5.49000e+03,    5.07272e+00,    1.75319e+01,    3.43584e+01
   5.50000e+03,    5.07112e+00,    1.75092e+01,    3.43676e+01
   5.51000e+03,    5.06950e+00,    1.74866e+01,    3.43769e+01
   5.52000e+03,    5.06786e+00,    1.74641e+01,    3.43860e+01
   5.53000e+03,    5.06621e+00,    1.74417e+01,    3.43952e+01
   5.54000e+03,    5.06454e+00,    1.74194e+01,    3.44044e+01
   5.55000e+03,    5.06285e+00,    1.73971e+01,    3.44135e+01
   5.56000e+03,    5.06115e+00,    1.73749e+01,    3.44226e+01
   5.57000e+03,    5.05943e+00,    1.73528e+01,    3.44317e+01
   5.58000e+03,    5.05769e+00,    1.73308e+01,    3.44408e+01
   5.59000e+03,    5.05594e+00,    1.73088e+01,    3.44498e+01
   5.60000e+03,    5.05417e+00,    1.72870e+01,    3.44589e+01
   5.61000e+03,    5.05238e+00,    1.72652e+01,    3.44679e+01
   5.62000e+03,    5.05057e+00,    1.72434e+01,    3.44769e+01
   5.63000e+03,    5.04875e+00,    1.72218e+01,    3.44859e+01
   5.64000e+03,    5.04691e+00,    1.72002e+01,    3.44948e+01
   5.65000e+03,    5.04505e+00,    1.71787e+01,    3.45038e+01
   5.66000e+03,    5.04318e+00,    1.71572e+01,    3.45127e+01
   5.67000e+03,    5.04129e+00,    1.71359e+01,    3.45216e+01
   5.68000e+03,    5.03938e+00,    1.71146e+01,    3.45305e+01
   5.69000e+03,    5.03745e+00,    1.70933e+01,    3.45393e+01
   5.70000e+03,    5.03551e+00,    1.70722e+01,    3.45482e+01
   5.71000e+03,    5.03355e+00,    1.70511e+01,    3.45570e+01
   5.72000e+03,    5.03157e+00,    1.70301e+01,    3.45658e+01
   5.73000e+03,    5.02958e+00,    1.70092e+01,    3.45746e+01
   5.74000e+03,    5.02757e+00,    1.69883e+01,    3.45833e+01
   5.75000e+03,    5.02553e+00,    1.69675e+01,    3.45921e+01
   5.76000e+03,    5.02349e+00,    1.69467e+01,    3.46008e+01
   5.77000e+03,    5.02142e+00,    1.69261e+01,    3.46095e+01
   5.78000e+03,    5.01934e+00,    1.69055e+01,    3.46182e+01
   5.79000e+03,    5.01724e+00,    1.68850e+01,    3.46269e+01
   5.80000e+03,    5.01512e+00,    1.68645e+01,    3.46356e+01
   5.81000e+03,    5.01299e+00,    1.68441e+01,    3.46442e+01
   5.82000e+03,    5.01083e+00,    1.68238e+01,    3.46528e+01
   5.83000e+03,    5.00866e+00,    1.68035e+01,    3.46614e+01
   5.84000e+03,    5.00647e+00,    1.67833e+01,    3.46700e+01
   5.85000e+03,    5.00427e+00,    1.67632e+01,    3.46786e+01
   5.86000e+03,    5.00204e+00,    1.67431e+01,    3.46871e+01
   5.87000e+03,    4.99980e+00,    1.67231e+01,    3.46956e+01
   5.88000e+03,    4.99754e+00,    1.67032e+01,    3.47041e+01
   5.89000e+03,    4.99526e+00,    1.66833e+01,    3.47126e+01
   5.90000e+03,    4.99297e+00,    1.66635e+01,    3.47211e+01
   5.91000e+03,    4.99065e+00,    1.66437e+01,    3.47296e+01
   5.92000e+03,    4.98832e+00,    1.66240e+01,    3.47380e+01
   5.93000e+03,    4.98597e+00,    1.66044e+01,    3.47464e+01
   5.94000e+03,    4.98361e+00,    1.65848e+01,    3.47548e+01
   5.95000e+03,    4.98122e+00,    1.65653e+01,    3.47632e+01
   5.96000e+03,    4.97882e+00,    1.65459e+01,    3.47716e+01
   5.97000e+03,    4.97640e+00,    1.65265e+01,    3.47799e+01
   5.98000e+03,    4.97396e+00,    1.65072e+01,    3.47882e+01
   5.99000e+03,    4.97150e+00,    1.64880e+01,    3.47965e+01
   6.00000e+03,    4.96902e+00,    1.64688e+01,    3.48048e+01
   6.01000e+03,    4.96735e+00,    1.64496e+01,    3.48131e+01
   6.02000e+03,    4.96565e+00,    1.64306e+01,    3.48214e+01
   6.03000e+03,    4.96392e+00,    1.64115e+01,    3.48296e+01
   6.04000e+03,    4.96217e+00,    1.63926e+01,    3.48378e+01
   6.05000e+03,    4.96039e+00,    1.63737e+01,    3.48460e+01
   6.06000e+03,    4.95858e+00,    1.63549e+01,    3.48542e+01
   6.07000e+03,    4.95674e+00,    1.63361e+01,    3.48624e+01
   6.08000e+03,    4.95488e+00,    1.63174e+01,    3.48706e+01
   6.09000e+03,    4.95299e+00,    1.62987e+01,    3.48787e+01
   6.10000e+03,    4.95108e+00,    1.62801e+01,    3.48868e+01
   6.11000e+03,    4.94914e+00,    1.62616e+01,    3.48949e+01
   6.12000e+03,    4.94718e+00,    1.62431e+01,    3.49030e+01
   6.13000e+03,    4.94519e+00,    1.62246e+01,    3.49111e+01
   6.14000e+03,    4.94318e+00,    1.62063e+01,    3.49192e+01
   6.15000e+03,    4.94115e+00,    1.61880e+01,    3.49272e+01
   6.16000e+03,    4.93910e+00,    1.61697e+01,    3.49352e+01
   6.17000e+03,    4.93702e+00,    1.61515e+01,    3.49432e+01
   6.18000e+03,    4.93493e+00,    1.61333e+01,    3.49512e+01
   6.19000e+03,    4.93281e+00,    1.61152e+01,    3.49592e+01
   6.20000e+03,    4.93067e+00,    1.60972e+01,    3.49672e+01
   6.21000e+03,    4.92851e+00,    1.60792e+01,    3.49751e+01
   6.22000e+03,    4.92633e+00,    1.60613e+01,    3.49830e+01
   6.23000e+03,    4.92412e+00,    1.60434e+01,    3.49909e+01
   6.24000e+03,    4.92190e+00,    1.60256e+01,    3.49988e+01
   6.25000e+03,    4.91967e+00,    1.60078e+01,    3.50067e+01
   6.26000e+03,    4.91741e+00,    1.59901e+01,    3.50146e+01
   6.27000e+03,    4.91513e+00,    1.59725e+01,    3.50224e+01
   6.28000e+03,    4.91284e+00,    1.59548e+01,    3.50303e+01
   6.29000e+03,    4.91053e+00,    1.59373e+01,    3.50381e+01
   6.30000e+03,    4.90820e+00,    1.59198e+01,    3.50459e+01
   6.31000e+03,    4.90585e+00,    1.59023e+01,    3.50537e+01
   6.32000e+03,    4.90349e+00,    1.58849e+01,    3.50614e+01
   6.33000e+03,    4.90111e+00,    1.58676e+01,    3.50692e+01
   6.34000e+03,    4.89871e+00,    1.58503e+01,    3.50769e+01
   6.35000e+03,    4.89630e+00,    1.58330e+01,    3.50846e+01
   6.36000e+03,    4.89387e+00,    1.58158e+01,    3.50923e+01
   6.37000e+03,    4.89143e+00,    1.57987e+01,    3.51000e+01
   6.38000e+03,    4.88897e+00,    1.57816e+01,    3.51077e+01
   6.39000e+03,    4.88650e+00,    1.57645e+01,    3.51153e+01
   6.40000e+03,    4.88401e+00,    1.57475e+01,    3.51230e+01
   6.41000e+03,    4.88151e+00,    1.57306e+01,    3.51306e+01
   6.42000e+03,    4.87900e+00,    1.57137e+01,    3.51382e+01
   6.43000e+03,    4.87647e+00,    1.56968e+01,    3.51458e+01
   6.44000e+03,    4.87393e+00,    1.56800e+01,    3.51534e+01
   6.45000e+03,    4.87138e+00,    1.56633e+01,    3.51609e+01
   6.46000e+03,    4.86881e+00,    1.56466e+01,    3.51685e+01
   6.47000e+03,    4.86623e+00,    1.56299e+01,    3.51760e+01
   6.48000e+03,    4.86364e+00,    1.56133e+01,    3.51835e+01
   6.49000e+03,    4.86104e+00,    1.55967e+01,    3.51910e+01
   6.50000e+03,    4.85842e+00,    1.55802e+01,    3.51985e+01
   6.51000e+03,    4.85580e+00,    1.55637e+01,    3.52060e+01
   6.52000e+03,    4.85316e+00,    1.55473e+01,    3.52134e+01
   6.53000e+03,    4.85051e+00,    1.55309e+01,    3.52209e+01
   6.54000e+03,    4.84785e+00,    1.55146e+01,    3.52283e+01
   6.55000e+03,    4.84518e+00,    1.54983e+01,    3.52357e+01
   6.56000e+03,    4.84250e+00,    1.54821e+01,    3.52431e+01
   6.57000e+03,    4.83981e+00,    1.54659e+01,    3.52505e+01
   6.58000e+03,    4.83711e+00,    1.54497e+01,    3.52578e+01
   6.59000e+03,    4.83440e+00,    1.54336e+01,    3.52652e+01
   6.60000e+03,    4.83168e+00,    1.54176e+01,    3.52725e+01
   6.61000e+03,    4.82896e+00,    1.54015e+01,    3.52798e+01
   6.62000e+03,    4.82622e+00,    1.53856e+01,    3.52871e+01
   6.63000e+03,    4.82347e+00,    1.53696e+01,    3.52944e+01
   6.64000e+03,    4.82072e+00,    1.53538e+01,    3.53016e+01
   6.65000e+03,    4.81796e+00,    1.53379e+01,    3.53089e+01
   6.66000e+03,    4.81519e+00,    1.53221e+01,    3.53161e+01
   6.67000e+03,    4.81241e+00,    1.53064e+01,    3.53234e+01
   6.68000e+03,    4.80962e+00,    1.52907e+01,    3.53306e+01
   6.69000e+03,    4.80683e+00,    1.52750e+01,    3.53378e+01
   6.70000e+03,    4.80403e+00,    1.52594e+01,    3.53449e+01
   6.71000e+03,    4.80122e+00,    1.52438e+01,    3.53521e+01
   6.72000e+03,    4.79841e+00,    1.52282e+01,    3.53592e+01
   6.73000e+03,    4.79558e+00,    1.52127e+01,    3.53664e+01
   6.74000e+03,    4.79276e+00,    1.51973e+01,    3.53735e+01
   6.75000e+03,    4.78992e+00,    1.51819e+01,    3.53806e+01
   6.76000e+03,    4.78708e+00,    1.51665e+01,    3.53877e+01
   6.77000e+03,    4.78423e+00,    1.51512e+01,    3.53948e+01
   6.78000e+03,    4.78138e+00,    1.51359e+01,    3.54018e+01
   6.79000e+03,    4.77852e+00,    1.51206e+01,    3.54089e+01
   6.80000e+03,    4.77566e+00,    1.51054e+01,    3.54159e+01
   6.81000e+03,    4.77279e+00,    1.50902e+01,    3.54229e+01
   6.82000e+03,    4.76991e+00,    1.50751e+01,    3.54299e+01
   6.83000e+03,    4.76703e+00,    1.50600e+01,    3.54369e+01
   6.84000e+03,    4.76414e+00,    1.50450e+01,    3.54439e+01
   6.85000e+03,    4.76125e+00,    1.50299e+01,    3.54508e+01
   6.86000e+03,    4.75836e+00,    1.50150e+01,    3.54578e+01
   6.87000e+03,    4.75546e+00,    1.50000e+01,    3.54647e+01
   6.88000e+03,    4.75255e+00,    1.49852e+01,    3.54716e+01
   6.89000e+03,    4.74965e+00,    1.49703e+01,    3.54785e+01
   6.90000e+03,    4.74673e+00,    1.49555e+01,    3.54854e+01
   6.91000e+03,    4.74382e+00,    1.49407e+01,    3.54923e+01
   6.92000e+03,    4.74090e+00,    1.49260e+01,    3.54991e+01
   6.93000e+03,    4.73797e+00,    1.49113e+01,    3.55060e+01
   6.94000e+03,    4.73505e+00,    1.48966e+01,    3.55128e+01
   6.95000e+03,    4.73211e+00,    1.48820e+01,    3.55196e+01
   6.96000e+03,    4.72918e+00,    1.48674e+01,    3.55264e+01
   6.97000e+03,    4.72624e+00,    1.48529e+01,    3.55332e+01
   6.98000e+03,    4.72330e+00,    1.48383e+01,    3.55400e+01
   6.99000e+03,    4.72036e+00,    1.48239e+01,    3.55468e+01
   7.00000e+03,    4.71741e+00,    1.48094e+01,    3.55535e+01
   7.01000e+03,    4.71446e+00,    1.47950e+01,    3.55602e+01
   7.02000e+03,    4.71151e+00,    1.47807e+01,    3.55669e+01
   7.03000e+03,    4.70856e+00,    1.47663e+01,    3.55737e+01
   7.04000e+03,    4.70560e+00,    1.47521e+01,    3.55803e+01
   7.05000e+03,    4.70264e+00,    1.47378e+01,    3.55870e+01
   7.06000e+03,    4.69968e+00,    1.47236e+01,    3.55937e+01
   7.07000e+03,    4.69672e+00,    1.47094e+01,    3.56003e+01
   7.08000e+03,    4.69375e+00,    1.46953e+01,    3.56070e+01
   7.09000e+03,    4.69078e+00,    1.46812e+01,    3.56136e+01
   7.10000e+03,    4.68781e+00,    1.46671e+01,    3.56202e+01
   7.11000e+03,    4.68484e+00,    1.46530e+01,    3.56268e+01
   7.12000e+03,    4.68187e+00,    1.46390e+01,    3.56334e+01
   7.13000e+03,    4.67890e+00,    1.46251e+01,    3.56400e+01
   7.14000e+03,    4.67592e+00,    1.46111e+01,    3.56465e+01
   7.15000e+03,    4.67295e+00,    1.45972e+01,    3.56530e+01
   7.16000e+03,    4.66997e+00,    1.45834e+01,    3.56596e+01
   7.17000e+03,    4.66699e+00,    1.45696e+01,    3.56661e+01
   7.18000e+03,    4.66401e+00,    1.45558e+01,    3.56726e+01
   7.19000e+03,    4.66103e+00,    1.45420e+01,    3.56791e+01
   7.20000e+03,    4.65805e+00,    1.45283e+01,    3.56856e+01
   7.21000e+03,    4.65507e+00,    1.45146e+01,    3.56920e+01
   7.22000e+03,    4.65209e+00,    1.45009e+01,    3.56985e+01
   7.23000e+03,    4.64911e+00,    1.44873e+01,    3.57049e+01
   7.24000e+03,    4.64612e+00,    1.44737e+01,    3.57113e+01
   7.25000e+03,    4.64314e+00,    1.44602e+01,    3.57177e+01
   7.26000e+03,    4.64016e+00,    1.44466e+01,    3.57241e+01
   7.27000e+03,    4.63717e+00,    1.44331e+01,    3.57305e+01
   7.28000e+03,    4.63419e+00,    1.44197e+01,    3.57369e+01
   7.29000e+03,    4.63120e+00,    1.44063e+01,    3.57433e+01
   7.30000e+03,    4.62822e+00,    1.43929e+01,    3.57496e+01
   7.31000e+03,    4.62523e+00,    1.43795e+01,    3.57559e+01
   7.32000e+03,    4.62225e+00,    1.43662e+01,    3.57623e+01
   7.33000e+03,    4.61927e+00,    1.43529e+01,    3.57686e+01
   7.34000e+03,    4.61628e+00,    1.43396e+01,    3.57749e+01
   7.35000e+03,    4.61330e+00,    1.43264e+01,    3.57811e+01
   7.36000e+03,    4.61032e+00,    1.43132e+01,    3.57874e+01
   7.37000e+03,    4.60734e+00,    1.43000e+01,    3.57937e+01
   7.38000e+03,    4.60435e+00,    1.42869e+01,    3.57999e+01
   7.39000e+03,    4.60137e+00,    1.42738e+01,    3.58062e+01
   7.40000e+03,    4.59839e+00,    1.42607e+01,    3.58124e+01
   7.41000e+03,    4.59541e+00,    1.42477e+01,    3.58186e+01
   7.42000e+03,    4.59243e+00,    1.42347e+01,    3.58248e+01
   7.43000e+03,    4.58946e+00,    1.42217e+01,    3.58310e+01
   7.44000e+03,    4.58648e+00,    1.42087e+01,    3.58371e+01
   7.45000e+03,    4.58350e+00,    1.41958e+01,    3.58433e+01
   7.46000e+03,    4.58053e+00,    1.41829e+01,    3.58494e+01
   7.47000e+03,    4.57755e+00,    1.41701e+01,    3.58556e+01
   7.48000e+03,    4.57458e+00,    1.41572e+01,    3.58617e+01
   7.49000e+03,    4.57161e+00,    1.41444e+01,    3.58678e+01
   7.50000e+03,    4.56864e+00,    1.41317e+01,    3.58739e+01
   7.51000e+03,    4.56567e+00,    1.41189e+01,    3.58800e+01
   7.52000e+03,    4.56270e+00,    1.41062e+01,    3.58861e+01
   7.53000e+03,    4.55974e+00,    1.40936e+01,    3.58921e+01
   7.54000e+03,    4.55677e+00,    1.40809e+01,    3.58982e+01
   7.55000e+03,    4.55381e+00,    1.40683e+01,    3.59042e+01
   7.56000e+03,    4.55085e+00,    1.40557e+01,    3.59102e+01
   7.57000e+03,    4.54789e+00,    1.40432e+01,    3.59162e+01
   7.58000e+03,    4.54493e+00,    1.40306e+01,    3.59222e+01
   7.59000e+03,    4.54197e+00,    1.40181e+01,    3.59282e+01
   7.60000e+03,    4.53902e+00,    1.40057e+01,    3.59342e+01
   7.61000e+03,    4.53606e+00,    1.39932e+01,    3.59402e+01
   7.62000e+03,    4.53311e+00,    1.39808e+01,    3.59461e+01
   7.63000e+03,    4.53016e+00,    1.39684e+01,    3.59521e+01
   7.64000e+03,    4.52722e+00,    1.39561e+01,    3.59580e+01
   7.65000e+03,    4.52427e+00,    1.39437e+01,    3.59639e+01
   7.66000e+03,    4.52133e+00,    1.39314e+01,    3.59698e+01
   7.67000e+03,    4.51839e+00,    1.39192e+01,    3.59757e+01
   7.68000e+03,    4.51545e+00,    1.39069e+01,    3.59816e+01
   7.69000e+03,    4.51251e+00,    1.38947e+01,    3.59875e+01
   7.70000e+03,    4.50957e+00,    1.38825e+01,    3.59934e+01
   7.71000e+03,    4.50664e+00,    1.38704e+01,    3.59992e+01
   7.72000e+03,    4.50371e+00,    1.38582e+01,    3.60050e+01
   7.73000e+03,    4.50078e+00,    1.38461e+01,    3.60109e+01
   7.74000e+03,    4.49785e+00,    1.38341e+01,    3.60167e+01
   7.75000e+03,    4.49493e+00,    1.38220e+01,    3.60225e+01
   7.76000e+03,    4.49201e+00,    1.38100e+01,    3.60283e+01
   7.77000e+03,    4.48909e+00,    1.37980e+01,    3.60341e+01
   7.78000e+03,    4.48617e+00,    1.37860e+01,    3.60398e+01
   7.79000e+03,    4.48326e+00,    1.37741e+01,    3.60456e+01
   7.80000e+03,    4.48035e+00,    1.37622e+01,    3.60514e+01
   7.81000e+03,    4.47744e+00,    1.37503e+01,    3.60571e+01
   7.82000e+03,    4.47453e+00,    1.37384e+01,    3.60628e+01
   7.83000e+03,    4.47163e+00,    1.37266e+01,    3.60685e+01
   7.84000e+03,    4.46872e+00,    1.37148e+01,    3.60742e+01
   7.85000e+03,    4.46583e+00,    1.37030e+01,    3.60799e+01
   7.86000e+03,    4.46293e+00,    1.36912e+01,    3.60856e+01
   7.87000e+03,    4.46003e+00,    1.36795e+01,    3.60913e+01
   7.88000e+03,    4.45714e+00,    1.36678e+01,    3.60970e+01
   7.89000e+03,    4.45426e+00,    1.36561e+01,    3.61026e+01
   7.90000e+03,    4.45137e+00,    1.36445e+01,    3.61082e+01
   7.91000e+03,    4.44849e+00,    1.36329e+01,    3.61139e+01
   7.92000e+03,    4.44561e+00,    1.36213e+01,    3.61195e+01
   7.93000e+03,    4.44273e+00,    1.36097e+01,    3.61251e+01
   7.94000e+03,    4.43985e+00,    1.35981e+01,    3.61307e+01
   7.95000e+03,    4.43698e+00,    1.35866e+01,    3.61363e+01
   7.96000e+03,    4.43411e+00,    1.35751e+01,    3.61419e+01
   7.97000e+03,    4.43125e+00,    1.35637e+01,    3.61474e+01
   7.98000e+03,    4.42839e+00,    1.35522e+01,    3.61530e+01
   7.99000e+03,    4.42553e+00,    1.35408e+01,    3.61585e+01
   8.00000e+03,    4.42267e+00,    1.35294e+01,    3.61641e+01
   8.01000e+03,    4.41981e+00,    1.35180e+01,    3.61696e+01
   8.02000e+03,    4.41696e+00,    1.35067e+01,    3.61751e+01
   8.03000e+03,    4.41411e+00,    1.34954e+01,    3.61806e+01
   8.04000e+03,    4.41127e+00,    1.34841e+01,    3.61861e+01
   8.05000e+03,    4.40843e+00,    1.34728e+01,    3.61916e+01
   8.06000e+03,    4.40559e+00,    1.34615e+01,    3.61970e+01
   8.07000e+03,    4.40275e+00,    1.34503e+01,    3.62025e+01
   8.08000e+03,    4.39992e+00,    1.34391e+01,    3.62080e+01
   8.09000e+03,    4.39709e+00,    1.34279e+01,    3.62134e+01
   8.10000e+03,    4.39426e+00,    1.34168e+01,    3.62188e+01
   8.11000e+03,    4.39144e+00,    1.34057e+01,    3.62242e+01
   8.12000e+03,    4.38862e+00,    1.33946e+01,    3.62297e+01
   8.13000e+03,    4.38580e+00,    1.33835e+01,    3.62351e+01
   8.14000e+03,    4.38299e+00,    1.33724e+01,    3.62404e+01
   8.15000e+03,    4.38018e+00,    1.33614e+01,    3.62458e+01
   8.16000e+03,    4.37737e+00,    1.33504e+01,    3.62512e+01
   8.17000e+03,    4.37457e+00,    1.33394e+01,    3.62566e+01
   8.18000e+03,    4.37177e+00,    1.33284e+01,    3.62619e+01
   8.19000e+03,    4.36897e+00,    1.33175e+01,    3.62672e+01
   8.20000e+03,    4.36617e+00,    1.33066e+01,    3.62726e+01
   8.21000e+03,    4.36338e+00,    1.32957e+01,    3.62779e+01
   8.22000e+03,    4.36059e+00,    1.32848e+01,    3.62832e+01
   8.23000e+03,    4.35781e+00,    1.32740e+01,    3.62885e+01
   8.24000e+03,    4.35503e+00,    1.32632e+01,    3.62938e+01
   8.25000e+03,    4.35225e+00,    1.32524e+01,    3.62991e+01
   8.26000e+03,    4.34947e+00,    1.32416e+01,    3.63043e+01
   8.27000e+03,    4.34670e+00,    1.32308e+01,    3.63096e+01
   8.28000e+03,    4.34393e+00,    1.32201e+01,    3.63149e+01
   8.29000e+03,    4.34117e+00,    1.32094e+01,    3.63201e+01
   8.30000e+03,    4.33841e+00,    1.31987e+01,    3.63253e+01
   8.31000e+03,    4.33565e+00,    1.31880e+01,    3.63305e+01
   8.32000e+03,    4.33290e+00,    1.31774e+01,    3.63358e+01
   8.33000e+03,    4.33014e+00,    1.31668e+01,    3.63410e+01
   8.34000e+03,    4.32740e+00,    1.31562e+01,    3.63462e+01
   8.35000e+03,    4.32465e+00,    1.31456e+01,    3.63513e+01
   8.36000e+03,    4.32191e+00,    1.31351e+01,    3.63565e+01
   8.37000e+03,    4.31917e+00,    1.31245e+01,    3.63617e+01
   8.38000e+03,    4.31644e+00,    1.31140e+01,    3.63668e+01
   8.39000e+03,    4.31371e+00,    1.31035e+01,    3.63720e+01
   8.40000e+03,    4.31098e+00,    1.30931e+01,    3.63771e+01
   8.41000e+03,    4.30825e+00,    1.30826e+01,    3.63822e+01
   8.42000e+03,    4.30553e+00,    1.30722e+01,    3.63874e+01
   8.43000e+03,    4.30282e+00,    1.30618e+01,    3.63925e+01
   8.44000e+03,    4.30010e+00,    1.30514e+01,    3.63976e+01
   8.45000e+03,    4.29739e+00,    1.30411e+01,    3.64027e+01
   8.46000e+03,    4.29469e+00,    1.30307e+01,    3.64077e+01
   8.47000e+03,    4.29198e+00,    1.30204e+01,    3.64128e+01
   8.48000e+03,    4.28928e+00,    1.30101e+01,    3.64179e+01
   8.49000e+03,    4.28658e+00,    1.29998e+01,    3.64229e+01
   8.50000e+03,    4.28389e+00,    1.29896e+01,    3.64280e+01
   8.51000e+03,    4.28120e+00,    1.29794e+01,    3.64330e+01
   8.52000e+03,    4.27852e+00,    1.29691e+01,    3.64380e+01
   8.53000e+03,    4.27583e+00,    1.29590e+01,    3.64431e+01
   8.54000e+03,    4.27315e+00,    1.29488e+01,    3.64481e+01
   8.55000e+03,    4.27048e+00,    1.29386e+01,    3.64531e+01
   8.56000e+03,    4.26781e+00,    1.29285e+01,    3.64581e+01
   8.57000e+03,    4.26514e+00,    1.29184e+01,    3.64630e+01
   8.58000e+03,    4.26247e+00,    1.29083e+01,    3.64680e+01
   8.59000e+03,    4.25981e+00,    1.28982e+01,    3.64730e+01
   8.60000e+03,    4.25715e+00,    1.28882e+01,    3.64779e+01
   8.61000e+03,    4.25450e+00,    1.28782e+01,    3.64829e+01
   8.62000e+03,    4.25184e+00,    1.28682e+01,    3.64878e+01
   8.63000e+03,    4.24920e+00,    1.28582e+01,    3.64927e+01
   8.64000e+03,    4.24655e+00,    1.28482e+01,    3.64977e+01
   8.65000e+03,    4.24391e+00,    1.28383e+01,    3.65026e+01
   8.66000e+03,    4.24127e+00,    1.28283e+01,    3.65075e+01
   8.67000e+03,    4.23864e+00,    1.28184e+01,    3.65124e+01
   8.68000e+03,    4.23601e+00,    1.28086e+01,    3.65172e+01
   8.69000e+03,    4.23338e+00,    1.27987e+01,    3.65221e+01
   8.70000e+03,    4.23076e+00,    1.27888e+01,    3.65270e+01
   8.71000e+03,    4.22814e+00,    1.27790e+01,    3.65318e+01
   8.72000e+03,    4.22552e+00,    1.27692e+01,    3.65367e+01
   8.73000e+03,    4.22291e+00,    1.27594e+01,    3.65415e+01
   8.74000e+03,    4.22030e+00,    1.27497e+01,    3.65464e+01
   8.75000e+03,    4.21769e+00,    1.27399e+01,    3.65512e+01
   8.76000e+03,    4.21509e+00,    1.27302e+01,    3.65560e+01
   8.77000e+03,    4.21249e+00,    1.27205e+01,    3.65608e+01
   8.78000e+03,    4.20990e+00,    1.27108e+01,    3.65656e+01
   8.79000e+03,    4.20731e+00,    1.27011e+01,    3.65704e+01
   8.80000e+03,    4.20472e+00,    1.26914e+01,    3.65752e+01
   8.81000e+03,    4.20213e+00,    1.26818e+01,    3.65800e+01
   8.82000e+03,    4.19955e+00,    1.26722e+01,    3.65847e+01
   8.83000e+03,    4.19697e+00,    1.26626e+01,    3.65895e+01
   8.84000e+03,    4.19440e+00,    1.26530e+01,    3.65942e+01
   8.85000e+03,    4.19183e+00,    1.26435e+01,    3.65990e+01
   8.86000e+03,    4.18926e+00,    1.26339e+01,    3.66037e+01
   8.87000e+03,    4.18669e+00,    1.26244e+01,    3.66084e+01
   8.88000e+03,    4.18413e+00,    1.26149e+01,    3.66132e+01
   8.89000e+03,    4.18158e+00,    1.26054e+01,    3.66179e+01
   8.90000e+03,    4.17902e+00,    1.25959e+01,    3.66226e+01
   8.91000e+03,    4.17647e+00,    1.25865e+01,    3.66273e+01
   8.92000e+03,    4.17393e+00,    1.25771e+01,    3.66319e+01
   8.93000e+03,    4.17138e+00,    1.25677e+01,    3.66366e+01
   8.94000e+03,    4.16884e+00,    1.25583e+01,    3.66413e+01
   8.95000e+03,    4.16631e+00,    1.25489e+01,    3.66459e+01
   8.96000e+03,    4.16377e+00,    1.25395e+01,    3.66506e+01
   8.97000e+03,    4.16124e+00,    1.25302e+01,    3.66552e+01
   8.98000e+03,    4.15872e+00,    1.25209e+01,    3.66599e+01
   8.99000e+03,    4.15620e+00,    1.25116e+01,    3.66645e+01
   9.00000e+03,    4.15368e+00,    1.25023e+01,    3.66691e+01
   9.01000e+03,    4.15116e+00,    1.24930e+01,    3.66737e+01
   9.02000e+03,    4.14865e+00,    1.24838e+01,    3.66783e+01
   9.03000e+03,    4.14614e+00,    1.24745e+01,    3.66829e+01
   9.04000e+03,    4.14363e+00,    1.24653e+01,    3.66875e+01
   9.05000e+03,    4.14113e+00,    1.24561e+01,    3.66921e+01
   9.06000e+03,    4.13863e+00,    1.24469e+01,    3.66967e+01
   9.07000e+03,    4.13614e+00,    1.24378e+01,    3.67012e+01
   9.08000e+03,    4.13365e+00,    1.24286e+01,    3.67058e+01
   9.09000e+03,    4.13116e+00,    1.24195e+01,    3.67103e+01
   9.10000e+03,    4.12867e+00,    1.24104e+01,    3.67149e+01
   9.11000e+03,    4.12619e+00,    1.24013e+01,    3.67194e+01
   9.12000e+03,    4.12371e+00,    1.23922e+01,    3.67239e+01
   9.13000e+03,    4.12124e+00,    1.23832e+01,    3.67284e+01
   9.14000e+03,    4.11877e+00,    1.23741e+01,    3.67330e+01
   9.15000e+03,    4.11630e+00,    1.23651e+01,    3.67375e+01
   9.16000e+03,    4.11383e+00,    1.23561e+01,    3.67420e+01
   9.17000e+03,    4.11137e+00,    1.23471e+01,    3.67464e+01
   9.18000e+03,    4.10892e+00,    1.23381e+01,    3.67509e+01
   9.19000e+03,    4.10646e+00,    1.23292e+01,    3.67554e+01
   9.20000e+03,    4.10401e+00,    1.23202e+01,    3.67599e+01
   9.21000e+03,    4.10156e+00,    1.23113e+01,    3.67643e+01
   9.22000e+03,    4.09912e+00,    1.23024e+01,    3.67688e+01
   9.23000e+03,    4.09668e+00,    1.22935e+01,    3.67732e+01
   9.24000e+03,    4.09424e+00,    1.22847e+01,    3.67776e+01
   9.25000e+03,    4.09181e+00,    1.22758e+01,    3.67821e+01
   9.26000e+03,    4.08937e+00,    1.22670e+01,    3.67865e+01
   9.27000e+03,    4.08695e+00,    1.22581e+01,    3.67909e+01
   9.28000e+03,    4.08452e+00,    1.22493e+01,    3.67953e+01
   9.29000e+03,    4.08210e+00,    1.22405e+01,    3.67997e+01
   9.30000e+03,    4.07968e+00,    1.22318e+01,    3.68041e+01
   9.31000e+03,    4.07727e+00,    1.22230e+01,    3.68085e+01
   9.32000e+03,    4.07486e+00,    1.22143e+01,    3.68129e+01
   9.33000e+03,    4.07245e+00,    1.22055e+01,    3.68172e+01
   9.34000e+03,    4.07005e+00,    1.21968e+01,    3.68216e+01
   9.35000e+03,    4.06765e+00,    1.21881e+01,    3.68259e+01
   9.36000e+03,    4.06525e+00,    1.21795e+01,    3.68303e+01
   9.37000e+03,    4.06285e+00,    1.21708e+01,    3.68346e+01
   9.38000e+03,    4.06046e+00,    1.21622e+01,    3.68390e+01
   9.39000e+03,    4.05808e+00,    1.21535e+01,    3.68433e+01
   9.40000e+03,    4.05569e+00,    1.21449e+01,    3.68476e+01
   9.41000e+03,    4.05331e+00,    1.21363e+01,    3.68519e+01
   9.42000e+03,    4.05093e+00,    1.21277e+01,    3.68562e+01
   9.43000e+03,    4.04856e+00,    1.21192e+01,    3.68605e+01
   9.44000e+03,    4.04619e+00,    1.21106e+01,    3.68648e+01
   9.45000e+03,    4.04382e+00,    1.21021e+01,    3.68691e+01
   9.46000e+03,    4.04145e+00,    1.20936e+01,    3.68734e+01
   9.47000e+03,    4.03909e+00,    1.20851e+01,    3.68776e+01
   9.48000e+03,    4.03673e+00,    1.20766e+01,    3.68819e+01
   9.49000e+03,    4.03438e+00,    1.20681e+01,    3.68861e+01
   9.50000e+03,    4.03203e+00,    1.20596e+01,    3.68904e+01
   9.51000e+03,    4.02968e+00,    1.20512e+01,    3.68946e+01
   9.52000e+03,    4.02733e+00,    1.20428e+01,    3.68989e+01
   9.53000e+03,    4.02499e+00,    1.20344e+01,    3.69031e+01
   9.54000e+03,    4.02265e+00,    1.20260e+01,    3.69073e+01
   9.55000e+03,    4.02031e+00,    1.20176e+01,    3.69115e+01
   9.56000e+03,    4.01798e+00,    1.20092e+01,    3.69157e+01
   9.57000e+03,    4.01565e+00,    1.20009e+01,    3.69199e+01
   9.58000e+03,    4.01333e+00,    1.19925e+01,    3.69241e+01
   9.59000e+03,    4.01100e+00,    1.19842e+01,    3.69283e+01
   9.60000e+03,    4.00868e+00,    1.19759e+01,    3.69325e+01
   9.61000e+03,    4.00637e+00,    1.19676e+01,    3.69367e+01
   9.62000e+03,    4.00405e+00,    1.19593e+01,    3.69408e+01
   9.63000e+03,    4.00174e+00,    1.19511e+01,    3.69450e+01
   9.64000e+03,    3.99944e+00,    1.19428e+01,    3.69491e+01
   9.65000e+03,    3.99713e+00,    1.19346e+01,    3.69533e+01
   9.66000e+03,    3.99483e+00,    1.19264e+01,    3.69574e+01
   9.67000e+03,    3.99253e+00,    1.19182e+01,    3.69616e+01
   9.68000e+03,    3.99024e+00,    1.19100e+01,    3.69657e+01
   9.69000e+03,    3.98795e+00,    1.19018e+01,    3.69698e+01
   9.70000e+03,    3.98566e+00,    1.18936e+01,    3.69739e+01
   9.71000e+03,    3.98337e+00,    1.18855e+01,    3.69780e+01
   9.72000e+03,    3.98109e+00,    1.18774e+01,    3.69821e+01
   9.73000e+03,    3.97881e+00,    1.18692e+01,    3.69862e+01
   9.74000e+03,    3.97654e+00,    1.18611e+01,    3.69903e+01
   9.75000e+03,    3.97427e+00,    1.18531e+01,    3.69944e+01
   9.76000e+03,    3.97200e+00,    1.18450e+01,    3.69984e+01
   9.77000e+03,    3.96973e+00,    1.18369e+01,    3.70025e+01
   9.78000e+03,    3.96747e+00,    1.18289e+01,    3.70066e+01
   9.79000e+03,    3.96521e+00,    1.18208e+01,    3.70106e+01
   9.80000e+03,    3.96295e+00,    1.18128e+01,    3.70147e+01
   9.81000e+03,    3.96070e+00,    1.18048e+01,    3.70187e+01
   9.82000e+03,    3.95845e+00,    1.17968e+01,    3.70227e+01
   9.83000e+03,    3.95620e+00,    1.17889e+01,    3.70268e+01
   9.84000e+03,    3.95395e+00,    1.17809e+01,    3.70308e+01
   9.85000e+03,    3.95171e+00,    1.17730e+01,    3.70348e+01
   9.86000e+03,    3.94947e+00,    1.17650e+01,    3.70388e+01
   9.87000e+03,    3.94724e+00,    1.17571e+01,    3.70428e+01
   9.88000e+03,    3.94501e+00,    1.17492e+01,    3.70468e+01
   9.89000e+03,    3.94278e+00,    1.17413e+01,    3.70508e+01
   9.90000e+03,    3.94055e+00,    1.17334e+01,    3.70548e+01
   9.91000e+03,    3.93833e+00,    1.17256e+01,    3.70588e+01
   9.92000e+03,    3.93611e+00,    1.17177e+01,    3.70627e+01
   9.93000e+03,    3.93389e+00,    1.17099e+01,    3.70667e+01
   9.94000e+03,    3.93168e+00,    1.17021e+01,    3.70707e+01
   9.95000e+03,    3.92946e+00,    1.16942e+01,    3.70746e+01
   9.96000e+03,    3.92726e+00,    1.16864e+01,    3.70786e+01
   9.97000e+03,    3.92505e+00,    1.16787e+01,    3.70825e+01
   9.98000e+03,    3.92285e+00,    1.16709e+01,    3.70864e+01
   9.99000e+03,    3.92065e+00,    1.16631e+01,    3.70904e+01
   1.00000e+04,    3.91845e+00,    1.16554e+01,    3.70943e+01
