# Statistical Thermodynamics
# Computation done on 12-Feb-2020 07:55:57
# Species CH(A)
# Standard state T =    2.98150e+02 (K) P =    1.01325e+05 (Pa)
# C_P           2.91554e+01 (J/K mol)
# H             8.71542e+05 (J/mol)
# S             1.82708e+02 (J/K mol)
# C_P/R         3.50659e+00
# H/RT          3.51576e+02
# S/R           2.19747e+01
#     T            C_P/R           H/RT            S/R
   2.00000e+02,    3.50435e+00,    5.22392e+02,    2.05751e+01
   2.10000e+02,    3.50454e+00,    4.97683e+02,    2.07461e+01
   2.20000e+02,    3.50473e+00,    4.75220e+02,    2.09092e+01
   2.30000e+02,    3.50492e+00,    4.54711e+02,    2.10649e+01
   2.40000e+02,    3.50512e+00,    4.35911e+02,    2.12141e+01
   2.50000e+02,    3.50533e+00,    4.18614e+02,    2.13572e+01
   2.60000e+02,    3.50556e+00,    4.02649e+02,    2.14947e+01
   2.70000e+02,    3.50579e+00,    3.87866e+02,    2.16270e+01
   2.80000e+02,    3.50605e+00,    3.74138e+02,    2.17545e+01
   2.90000e+02,    3.50633e+00,    3.61358e+02,    2.18775e+01
   3.00000e+02,    3.50665e+00,    3.49430e+02,    2.19964e+01
   3.10000e+02,    3.50701e+00,    3.38271e+02,    2.21114e+01
   3.20000e+02,    3.50742e+00,    3.27809e+02,    2.22228e+01
   3.30000e+02,    3.50789e+00,    3.17982e+02,    2.23307e+01
   3.40000e+02,    3.50842e+00,    3.08733e+02,    2.24354e+01
   3.50000e+02,    3.50904e+00,    3.00012e+02,    2.25371e+01
   3.60000e+02,    3.50976e+00,    2.91776e+02,    2.26360e+01
   3.70000e+02,    3.51057e+00,    2.83985e+02,    2.27322e+01
   3.80000e+02,    3.51150e+00,    2.76604e+02,    2.28258e+01
   3.90000e+02,    3.51256e+00,    2.69602e+02,    2.29170e+01
   4.00000e+02,    3.51376e+00,    2.62950e+02,    2.30060e+01
   4.10000e+02,    3.51510e+00,    2.56622e+02,    2.30928e+01
   4.20000e+02,    3.51661e+00,    2.50596e+02,    2.31775e+01
   4.30000e+02,    3.51828e+00,    2.44850e+02,    2.32602e+01
   4.40000e+02,    3.52013e+00,    2.39365e+02,    2.33411e+01
   4.50000e+02,    3.52216e+00,    2.34124e+02,    2.34203e+01
   4.60000e+02,    3.52438e+00,    2.29111e+02,    2.34977e+01
   4.70000e+02,    3.52680e+00,    2.24311e+02,    2.35735e+01
   4.80000e+02,    3.52942e+00,    2.19711e+02,    2.36478e+01
   4.90000e+02,    3.53224e+00,    2.15300e+02,    2.37206e+01
   5.00000e+02,    3.53527e+00,    2.11064e+02,    2.37920e+01
   5.10000e+02,    3.53851e+00,    2.06995e+02,    2.38620e+01
   5.20000e+02,    3.54196e+00,    2.03082e+02,    2.39308e+01
   5.30000e+02,    3.54561e+00,    1.99318e+02,    2.39983e+01
   5.40000e+02,    3.54948e+00,    1.95692e+02,    2.40646e+01
   5.50000e+02,    3.55355e+00,    1.92199e+02,    2.41298e+01
   5.60000e+02,    3.55783e+00,    1.88830e+02,    2.41938e+01
   5.70000e+02,    3.56230e+00,    1.85580e+02,    2.42568e+01
   5.80000e+02,    3.56698e+00,    1.82442e+02,    2.43188e+01
   5.90000e+02,    3.57184e+00,    1.79410e+02,    2.43799e+01
   6.00000e+02,    3.57689e+00,    1.76479e+02,    2.44399e+01
   6.10000e+02,    3.58212e+00,    1.73645e+02,    2.44991e+01
   6.20000e+02,    3.58753e+00,    1.70902e+02,    2.45574e+01
   6.30000e+02,    3.59311e+00,    1.68246e+02,    2.46148e+01
   6.40000e+02,    3.59886e+00,    1.65674e+02,    2.46715e+01
   6.50000e+02,    3.60476e+00,    1.63180e+02,    2.47273e+01
   6.60000e+02,    3.61081e+00,    1.60762e+02,    2.47824e+01
   6.70000e+02,    3.61700e+00,    1.58417e+02,    2.48367e+01
   6.80000e+02,    3.62333e+00,    1.56140e+02,    2.48904e+01
   6.90000e+02,    3.62979e+00,    1.53930e+02,    2.49433e+01
   7.00000e+02,    3.63637e+00,    1.51783e+02,    2.49956e+01
   7.10000e+02,    3.64306e+00,    1.49696e+02,    2.50472e+01
   7.20000e+02,    3.64987e+00,    1.47668e+02,    2.50982e+01
   7.30000e+02,    3.65677e+00,    1.45695e+02,    2.51486e+01
   7.40000e+02,    3.66377e+00,    1.43776e+02,    2.51984e+01
   7.50000e+02,    3.67086e+00,    1.41908e+02,    2.52476e+01
   7.60000e+02,    3.67803e+00,    1.40089e+02,    2.52963e+01
   7.70000e+02,    3.68527e+00,    1.38317e+02,    2.53444e+01
   7.80000e+02,    3.69258e+00,    1.36591e+02,    2.53920e+01
   7.90000e+02,    3.69995e+00,    1.34909e+02,    2.54391e+01
   8.00000e+02,    3.70738e+00,    1.33269e+02,    2.54857e+01
   8.10000e+02,    3.71486e+00,    1.31670e+02,    2.55318e+01
   8.20000e+02,    3.72238e+00,    1.30109e+02,    2.55774e+01
   8.30000e+02,    3.72994e+00,    1.28586e+02,    2.56226e+01
   8.40000e+02,    3.73753e+00,    1.27100e+02,    2.56673e+01
   8.50000e+02,    3.74516e+00,    1.25649e+02,    2.57116e+01
   8.60000e+02,    3.75281e+00,    1.24231e+02,    2.57554e+01
   8.70000e+02,    3.76047e+00,    1.22847e+02,    2.57989e+01
   8.80000e+02,    3.76815e+00,    1.21493e+02,    2.58419e+01
   8.90000e+02,    3.77585e+00,    1.20171e+02,    2.58845e+01
   9.00000e+02,    3.78354e+00,    1.18877e+02,    2.59267e+01
   9.10000e+02,    3.79124e+00,    1.17613e+02,    2.59686e+01
   9.20000e+02,    3.79894e+00,    1.16376e+02,    2.60101e+01
   9.30000e+02,    3.80664e+00,    1.15165e+02,    2.60512e+01
   9.40000e+02,    3.81433e+00,    1.13981e+02,    2.60919e+01
   9.50000e+02,    3.82200e+00,    1.12821e+02,    2.61323e+01
   9.60000e+02,    3.82966e+00,    1.11686e+02,    2.61724e+01
   9.70000e+02,    3.83731e+00,    1.10574e+02,    2.62121e+01
   9.80000e+02,    3.84493e+00,    1.09485e+02,    2.62515e+01
   9.90000e+02,    3.85253e+00,    1.08418e+02,    2.62906e+01
   1.00000e+03,    3.86011e+00,    1.07372e+02,    2.63294e+01
   1.01000e+03,    3.86766e+00,    1.06347e+02,    2.63678e+01
   1.02000e+03,    3.87518e+00,    1.05342e+02,    2.64059e+01
   1.03000e+03,    3.88267e+00,    1.04357e+02,    2.64438e+01
   1.04000e+03,    3.89013e+00,    1.03391e+02,    2.64813e+01
   1.05000e+03,    3.89755e+00,    1.02444e+02,    2.65186e+01
   1.06000e+03,    3.90494e+00,    1.01514e+02,    2.65556e+01
   1.07000e+03,    3.91229e+00,    1.00602e+02,    2.65923e+01
   1.08000e+03,    3.91960e+00,    9.97066e+01,    2.66287e+01
   1.09000e+03,    3.92687e+00,    9.88279e+01,    2.66649e+01
   1.10000e+03,    3.93410e+00,    9.79652e+01,    2.67008e+01
   1.11000e+03,    3.94129e+00,    9.71181e+01,    2.67364e+01
   1.12000e+03,    3.94843e+00,    9.62862e+01,    2.67718e+01
   1.13000e+03,    3.95553e+00,    9.54690e+01,    2.68069e+01
   1.14000e+03,    3.96258e+00,    9.46663e+01,    2.68418e+01
   1.15000e+03,    3.96959e+00,    9.38776e+01,    2.68764e+01
   1.16000e+03,    3.97655e+00,    9.31026e+01,    2.69108e+01
   1.17000e+03,    3.98346e+00,    9.23409e+01,    2.69450e+01
   1.18000e+03,    3.99032e+00,    9.15921e+01,    2.69789e+01
   1.19000e+03,    3.99714e+00,    9.08560e+01,    2.70126e+01
   1.20000e+03,    4.00391e+00,    9.01322e+01,    2.70461e+01
   1.21000e+03,    4.01062e+00,    8.94204e+01,    2.70794e+01
   1.22000e+03,    4.01729e+00,    8.87204e+01,    2.71124e+01
   1.23000e+03,    4.02391e+00,    8.80317e+01,    2.71452e+01
   1.24000e+03,    4.03047e+00,    8.73543e+01,    2.71778e+01
   1.25000e+03,    4.03699e+00,    8.66877e+01,    2.72102e+01
   1.26000e+03,    4.04346e+00,    8.60318e+01,    2.72424e+01
   1.27000e+03,    4.04987e+00,    8.53862e+01,    2.72744e+01
   1.28000e+03,    4.05623e+00,    8.47508e+01,    2.73062e+01
   1.29000e+03,    4.06255e+00,    8.41253e+01,    2.73378e+01
   1.30000e+03,    4.06881e+00,    8.35095e+01,    2.73692e+01
   1.31000e+03,    4.07502e+00,    8.29031e+01,    2.74004e+01
   1.32000e+03,    4.08118e+00,    8.23059e+01,    2.74314e+01
   1.33000e+03,    4.08728e+00,    8.17178e+01,    2.74622e+01
   1.34000e+03,    4.09334e+00,    8.11385e+01,    2.74929e+01
   1.35000e+03,    4.09934e+00,    8.05678e+01,    2.75233e+01
   1.36000e+03,    4.10529e+00,    8.00055e+01,    2.75536e+01
   1.37000e+03,    4.11119e+00,    7.94515e+01,    2.75837e+01
   1.38000e+03,    4.11704e+00,    7.89056e+01,    2.76136e+01
   1.39000e+03,    4.12284e+00,    7.83676e+01,    2.76434e+01
   1.40000e+03,    4.12859e+00,    7.78373e+01,    2.76729e+01
   1.41000e+03,    4.13428e+00,    7.73146e+01,    2.77023e+01
   1.42000e+03,    4.13993e+00,    7.67992e+01,    2.77316e+01
   1.43000e+03,    4.14552e+00,    7.62911e+01,    2.77606e+01
   1.44000e+03,    4.15106e+00,    7.57901e+01,    2.77896e+01
   1.45000e+03,    4.15655e+00,    7.52961e+01,    2.78183e+01
   1.46000e+03,    4.16199e+00,    7.48089e+01,    2.78469e+01
   1.47000e+03,    4.16738e+00,    7.43283e+01,    2.78753e+01
   1.48000e+03,    4.17272e+00,    7.38542e+01,    2.79036e+01
   1.49000e+03,    4.17801e+00,    7.33866e+01,    2.79317e+01
   1.50000e+03,    4.18325e+00,    7.29252e+01,    2.79597e+01
   1.51000e+03,    4.18843e+00,    7.24700e+01,    2.79875e+01
   1.52000e+03,    4.19357e+00,    7.20208e+01,    2.80151e+01
   1.53000e+03,    4.19865e+00,    7.15775e+01,    2.80427e+01
   1.54000e+03,    4.20369e+00,    7.11400e+01,    2.80700e+01
   1.55000e+03,    4.20867e+00,    7.07082e+01,    2.80972e+01
   1.56000e+03,    4.21361e+00,    7.02819e+01,    2.81243e+01
   1.57000e+03,    4.21849e+00,    6.98611e+01,    2.81513e+01
   1.58000e+03,    4.22333e+00,    6.94457e+01,    2.81781e+01
   1.59000e+03,    4.22811e+00,    6.90355e+01,    2.82047e+01
   1.60000e+03,    4.23284e+00,    6.86304e+01,    2.82313e+01
   1.61000e+03,    4.23752e+00,    6.82305e+01,    2.82576e+01
   1.62000e+03,    4.24216e+00,    6.78355e+01,    2.82839e+01
   1.63000e+03,    4.24674e+00,    6.74453e+01,    2.83100e+01
   1.64000e+03,    4.25127e+00,    6.70600e+01,    2.83360e+01
   1.65000e+03,    4.25575e+00,    6.66793e+01,    2.83619e+01
   1.66000e+03,    4.26018e+00,    6.63033e+01,    2.83876e+01
   1.67000e+03,    4.26456e+00,    6.59318e+01,    2.84132e+01
   1.68000e+03,    4.26890e+00,    6.55648e+01,    2.84387e+01
   1.69000e+03,    4.27318e+00,    6.52021e+01,    2.84640e+01
   1.70000e+03,    4.27740e+00,    6.48437e+01,    2.84892e+01
   1.71000e+03,    4.28158e+00,    6.44895e+01,    2.85143e+01
   1.72000e+03,    4.28571e+00,    6.41395e+01,    2.85393e+01
   1.73000e+03,    4.28979e+00,    6.37935e+01,    2.85642e+01
   1.74000e+03,    4.29381e+00,    6.34515e+01,    2.85889e+01
   1.75000e+03,    4.29779e+00,    6.31135e+01,    2.86135e+01
   1.76000e+03,    4.30171e+00,    6.27793e+01,    2.86380e+01
   1.77000e+03,    4.30559e+00,    6.24490e+01,    2.86624e+01
   1.78000e+03,    4.30941e+00,    6.21223e+01,    2.86867e+01
   1.79000e+03,    4.31318e+00,    6.17994e+01,    2.87108e+01
   1.80000e+03,    4.31690e+00,    6.14800e+01,    2.87349e+01
   1.81000e+03,    4.32057e+00,    6.11642e+01,    2.87588e+01
   1.82000e+03,    4.32418e+00,    6.08519e+01,    2.87826e+01
   1.83000e+03,    4.32775e+00,    6.05430e+01,    2.88063e+01
   1.84000e+03,    4.33126e+00,    6.02375e+01,    2.88299e+01
   1.85000e+03,    4.33472e+00,    5.99353e+01,    2.88534e+01
   1.86000e+03,    4.33813e+00,    5.96364e+01,    2.88768e+01
   1.87000e+03,    4.34148e+00,    5.93407e+01,    2.89000e+01
   1.88000e+03,    4.34479e+00,    5.90481e+01,    2.89232e+01
   1.89000e+03,    4.34804e+00,    5.87587e+01,    2.89463e+01
   1.90000e+03,    4.35124e+00,    5.84723e+01,    2.89692e+01
   1.91000e+03,    4.35438e+00,    5.81890e+01,    2.89921e+01
   1.92000e+03,    4.35747e+00,    5.79086e+01,    2.90148e+01
   1.93000e+03,    4.36051e+00,    5.76312e+01,    2.90374e+01
   1.94000e+03,    4.36350e+00,    5.73566e+01,    2.90600e+01
   1.95000e+03,    4.36643e+00,    5.70848e+01,    2.90824e+01
   1.96000e+03,    4.36931e+00,    5.68159e+01,    2.91048e+01
   1.97000e+03,    4.37214e+00,    5.65496e+01,    2.91270e+01
   1.98000e+03,    4.37491e+00,    5.62861e+01,    2.91492e+01
   1.99000e+03,    4.37763e+00,    5.60253e+01,    2.91712e+01
   2.00000e+03,    4.38029e+00,    5.57670e+01,    2.91932e+01
   2.01000e+03,    4.38290e+00,    5.55114e+01,    2.92150e+01
   2.02000e+03,    4.38546e+00,    5.52583e+01,    2.92368e+01
   2.03000e+03,    4.38796e+00,    5.50077e+01,    2.92584e+01
   2.04000e+03,    4.39041e+00,    5.47596e+01,    2.92800e+01
   2.05000e+03,    4.39280e+00,    5.45139e+01,    2.93015e+01
   2.06000e+03,    4.39514e+00,    5.42706e+01,    2.93229e+01
   2.07000e+03,    4.39743e+00,    5.40296e+01,    2.93441e+01
   2.08000e+03,    4.39966e+00,    5.37910e+01,    2.93653e+01
   2.09000e+03,    4.40183e+00,    5.35547e+01,    2.93865e+01
   2.10000e+03,    4.40395e+00,    5.33206e+01,    2.94075e+01
   2.11000e+03,    4.40601e+00,    5.30888e+01,    2.94284e+01
   2.12000e+03,    4.40802e+00,    5.28592e+01,    2.94492e+01
   2.13000e+03,    4.40998e+00,    5.26317e+01,    2.94700e+01
   2.14000e+03,    4.41188e+00,    5.24064e+01,    2.94906e+01
   2.15000e+03,    4.41372e+00,    5.21832e+01,    2.95112e+01
   2.16000e+03,    4.41551e+00,    5.19620e+01,    2.95317e+01
   2.17000e+03,    4.41724e+00,    5.17429e+01,    2.95521e+01
   2.18000e+03,    4.41892e+00,    5.15258e+01,    2.95724e+01
   2.19000e+03,    4.42055e+00,    5.13107e+01,    2.95926e+01
   2.20000e+03,    4.42211e+00,    5.10976e+01,    2.96128e+01
   2.21000e+03,    4.42363e+00,    5.08864e+01,    2.96328e+01
   2.22000e+03,    4.42508e+00,    5.06771e+01,    2.96528e+01
   2.23000e+03,    4.42649e+00,    5.04697e+01,    2.96727e+01
   2.24000e+03,    4.42783e+00,    5.02641e+01,    2.96925e+01
   2.25000e+03,    4.42912e+00,    5.00604e+01,    2.97122e+01
   2.26000e+03,    4.43036e+00,    4.98585e+01,    2.97319e+01
   2.27000e+03,    4.43154e+00,    4.96584e+01,    2.97514e+01
   2.28000e+03,    4.43267e+00,    4.94600e+01,    2.97709e+01
   2.29000e+03,    4.43374e+00,    4.92634e+01,    2.97903e+01
   2.30000e+03,    4.43475e+00,    4.90685e+01,    2.98097e+01
   2.31000e+03,    4.43571e+00,    4.88753e+01,    2.98289e+01
   2.32000e+03,    4.43662e+00,    4.86837e+01,    2.98481e+01
   2.33000e+03,    4.43747e+00,    4.84938e+01,    2.98671e+01
   2.34000e+03,    4.43827e+00,    4.83056e+01,    2.98861e+01
   2.35000e+03,    4.43901e+00,    4.81189e+01,    2.99051e+01
   2.36000e+03,    4.43969e+00,    4.79338e+01,    2.99239e+01
   2.37000e+03,    4.44033e+00,    4.77503e+01,    2.99427e+01
   2.38000e+03,    4.44090e+00,    4.75683e+01,    2.99614e+01
   2.39000e+03,    4.44143e+00,    4.73879e+01,    2.99800e+01
   2.40000e+03,    4.44190e+00,    4.72089e+01,    2.99986e+01
   2.41000e+03,    4.44231e+00,    4.70315e+01,    3.00170e+01
   2.42000e+03,    4.44268e+00,    4.68555e+01,    3.00354e+01
   2.43000e+03,    4.44299e+00,    4.66810e+01,    3.00538e+01
   2.44000e+03,    4.44324e+00,    4.65078e+01,    3.00720e+01
   2.45000e+03,    4.44344e+00,    4.63362e+01,    3.00902e+01
   2.46000e+03,    4.44359e+00,    4.61659e+01,    3.01083e+01
   2.47000e+03,    4.44369e+00,    4.59969e+01,    3.01263e+01
   2.48000e+03,    4.44373e+00,    4.58294e+01,    3.01443e+01
   2.49000e+03,    4.44373e+00,    4.56632e+01,    3.01621e+01
   2.50000e+03,    4.44367e+00,    4.54983e+01,    3.01799e+01
   2.51000e+03,    4.44355e+00,    4.53347e+01,    3.01977e+01
   2.52000e+03,    4.44339e+00,    4.51725e+01,    3.02154e+01
   2.53000e+03,    4.44317e+00,    4.50115e+01,    3.02329e+01
   2.54000e+03,    4.44291e+00,    4.48518e+01,    3.02505e+01
   2.55000e+03,    4.44259e+00,    4.46933e+01,    3.02679e+01
   2.56000e+03,    4.44222e+00,    4.45361e+01,    3.02853e+01
   2.57000e+03,    4.44180e+00,    4.43801e+01,    3.03026e+01
   2.58000e+03,    4.44133e+00,    4.42253e+01,    3.03199e+01
   2.59000e+03,    4.44081e+00,    4.40717e+01,    3.03371e+01
   2.60000e+03,    4.44024e+00,    4.39192e+01,    3.03542e+01
   2.61000e+03,    4.43962e+00,    4.37680e+01,    3.03712e+01
   2.62000e+03,    4.43895e+00,    4.36179e+01,    3.03882e+01
   2.63000e+03,    4.43824e+00,    4.34689e+01,    3.04051e+01
   2.64000e+03,    4.43747e+00,    4.33210e+01,    3.04220e+01
   2.65000e+03,    4.43666e+00,    4.31743e+01,    3.04387e+01
   2.66000e+03,    4.43580e+00,    4.30287e+01,    3.04554e+01
   2.67000e+03,    4.43489e+00,    4.28841e+01,    3.04721e+01
   2.68000e+03,    4.43393e+00,    4.27407e+01,    3.04887e+01
   2.69000e+03,    4.43293e+00,    4.25983e+01,    3.05052e+01
   2.70000e+03,    4.43188e+00,    4.24569e+01,    3.05216e+01
   2.71000e+03,    4.43078e+00,    4.23166e+01,    3.05380e+01
   2.72000e+03,    4.42964e+00,    4.21773e+01,    3.05543e+01
   2.73000e+03,    4.42846e+00,    4.20390e+01,    3.05706e+01
   2.74000e+03,    4.42722e+00,    4.19018e+01,    3.05868e+01
   2.75000e+03,    4.42595e+00,    4.17655e+01,    3.06029e+01
   2.76000e+03,    4.42462e+00,    4.16302e+01,    3.06189e+01
   2.77000e+03,    4.42326e+00,    4.14959e+01,    3.06349e+01
   2.78000e+03,    4.42185e+00,    4.13625e+01,    3.06509e+01
   2.79000e+03,    4.42039e+00,    4.12301e+01,    3.06668e+01
   2.80000e+03,    4.41890e+00,    4.10987e+01,    3.06826e+01
   2.81000e+03,    4.41736e+00,    4.09681e+01,    3.06983e+01
   2.82000e+03,    4.41578e+00,    4.08385e+01,    3.07140e+01
   2.83000e+03,    4.41415e+00,    4.07098e+01,    3.07296e+01
   2.84000e+03,    4.41249e+00,    4.05820e+01,    3.07452e+01
   2.85000e+03,    4.41078e+00,    4.04551e+01,    3.07607e+01
   2.86000e+03,    4.40904e+00,    4.03290e+01,    3.07762e+01
   2.87000e+03,    4.40725e+00,    4.02039e+01,    3.07915e+01
   2.88000e+03,    4.40542e+00,    4.00796e+01,    3.08069e+01
   2.89000e+03,    4.40356e+00,    3.99561e+01,    3.08221e+01
   2.90000e+03,    4.40165e+00,    3.98335e+01,    3.08373e+01
   2.91000e+03,    4.39971e+00,    3.97118e+01,    3.08525e+01
   2.92000e+03,    4.39773e+00,    3.95909e+01,    3.08676e+01
   2.93000e+03,    4.39571e+00,    3.94707e+01,    3.08826e+01
   2.94000e+03,    4.39365e+00,    3.93514e+01,    3.08976e+01
   2.95000e+03,    4.39155e+00,    3.92329e+01,    3.09125e+01
   2.96000e+03,    4.38942e+00,    3.91152e+01,    3.09274e+01
   2.97000e+03,    4.38725e+00,    3.89983e+01,    3.09422e+01
   2.98000e+03,    4.38505e+00,    3.88821e+01,    3.09569e+01
   2.99000e+03,    4.38281e+00,    3.87668e+01,    3.09716e+01
   3.00000e+03,    4.38054e+00,    3.86521e+01,    3.09862e+01
   3.01000e+03,    4.37823e+00,    3.85383e+01,    3.10008e+01
   3.02000e+03,    4.37589e+00,    3.84252e+01,    3.10153e+01
   3.03000e+03,    4.37351e+00,    3.83128e+01,    3.10298e+01
   3.04000e+03,    4.37110e+00,    3.82011e+01,    3.10442e+01
   3.05000e+03,    4.36866e+00,    3.80902e+01,    3.10585e+01
   3.06000e+03,    4.36618e+00,    3.79800e+01,    3.10728e+01
   3.07000e+03,    4.36367e+00,    3.78705e+01,    3.10871e+01
   3.08000e+03,    4.36113e+00,    3.77617e+01,    3.11013e+01
   3.09000e+03,    4.35856e+00,    3.76536e+01,    3.11154e+01
   3.10000e+03,    4.35596e+00,    3.75462e+01,    3.11295e+01
   3.11000e+03,    4.35333e+00,    3.74395e+01,    3.11435e+01
   3.12000e+03,    4.35067e+00,    3.73334e+01,    3.11575e+01
   3.13000e+03,    4.34797e+00,    3.72281e+01,    3.11714e+01
   3.14000e+03,    4.34525e+00,    3.71233e+01,    3.11852e+01
   3.15000e+03,    4.34250e+00,    3.70193e+01,    3.11991e+01
   3.16000e+03,    4.33972e+00,    3.69159e+01,    3.12128e+01
   3.17000e+03,    4.33692e+00,    3.68131e+01,    3.12265e+01
   3.18000e+03,    4.33408e+00,    3.67110e+01,    3.12402e+01
   3.19000e+03,    4.33122e+00,    3.66095e+01,    3.12538e+01
   3.20000e+03,    4.32834e+00,    3.65086e+01,    3.12673e+01
   3.21000e+03,    4.32542e+00,    3.64083e+01,    3.12808e+01
   3.22000e+03,    4.32248e+00,    3.63087e+01,    3.12943e+01
   3.23000e+03,    4.31952e+00,    3.62097e+01,    3.13077e+01
   3.24000e+03,    4.31653e+00,    3.61112e+01,    3.13210e+01
   3.25000e+03,    4.31351e+00,    3.60134e+01,    3.13343e+01
   3.26000e+03,    4.31047e+00,    3.59162e+01,    3.13476e+01
   3.27000e+03,    4.30741e+00,    3.58195e+01,    3.13608e+01
   3.28000e+03,    4.30432e+00,    3.57234e+01,    3.13739e+01
   3.29000e+03,    4.30121e+00,    3.56279e+01,    3.13870e+01
   3.30000e+03,    4.29808e+00,    3.55330e+01,    3.14001e+01
   3.31000e+03,    4.29492e+00,    3.54386e+01,    3.14131e+01
   3.32000e+03,    4.29174e+00,    3.53448e+01,    3.14260e+01
   3.33000e+03,    4.28855e+00,    3.52516e+01,    3.14389e+01
   3.34000e+03,    4.28533e+00,    3.51588e+01,    3.14518e+01
   3.35000e+03,    4.28209e+00,    3.50667e+01,    3.14646e+01
   3.36000e+03,    4.27882e+00,    3.49751e+01,    3.14773e+01
   3.37000e+03,    4.27554e+00,    3.48840e+01,    3.14901e+01
   3.38000e+03,    4.27224e+00,    3.47934e+01,    3.15027e+01
   3.39000e+03,    4.26892e+00,    3.47034e+01,    3.15153e+01
   3.40000e+03,    4.26558e+00,    3.46138e+01,    3.15279e+01
   3.41000e+03,    4.26223e+00,    3.45248e+01,    3.15404e+01
   3.42000e+03,    4.25885e+00,    3.44363e+01,    3.15529e+01
   3.43000e+03,    4.25546e+00,    3.43484e+01,    3.15653e+01
   3.44000e+03,    4.25205e+00,    3.42609e+01,    3.15777e+01
   3.45000e+03,    4.24862e+00,    3.41739e+01,    3.15901e+01
   3.46000e+03,    4.24518e+00,    3.40874e+01,    3.16023e+01
   3.47000e+03,    4.24172e+00,    3.40014e+01,    3.16146e+01
   3.48000e+03,    4.23824e+00,    3.39159e+01,    3.16268e+01
   3.49000e+03,    4.23475e+00,    3.38308e+01,    3.16389e+01
   3.50000e+03,    4.23124e+00,    3.37463e+01,    3.16511e+01
   3.51000e+03,    4.22772e+00,    3.36622e+01,    3.16631e+01
   3.52000e+03,    4.22418e+00,    3.35785e+01,    3.16751e+01
   3.53000e+03,    4.22063e+00,    3.34954e+01,    3.16871e+01
   3.54000e+03,    4.21706e+00,    3.34127e+01,    3.16991e+01
   3.55000e+03,    4.21348e+00,    3.33304e+01,    3.17110e+01
   3.56000e+03,    4.20989e+00,    3.32486e+01,    3.17228e+01
   3.57000e+03,    4.20629e+00,    3.31673e+01,    3.17346e+01
   3.58000e+03,    4.20267e+00,    3.30864e+01,    3.17464e+01
   3.59000e+03,    4.19904e+00,    3.30059e+01,    3.17581e+01
   3.60000e+03,    4.19540e+00,    3.29259e+01,    3.17698e+01
   3.61000e+03,    4.19174e+00,    3.28463e+01,    3.17814e+01
   3.62000e+03,    4.18808e+00,    3.27672e+01,    3.17930e+01
   3.63000e+03,    4.18440e+00,    3.26884e+01,    3.18045e+01
   3.64000e+03,    4.18072e+00,    3.26101e+01,    3.18160e+01
   3.65000e+03,    4.17702e+00,    3.25322e+01,    3.18275e+01
   3.66000e+03,    4.17332e+00,    3.24547e+01,    3.18389e+01
   3.67000e+03,    4.16960e+00,    3.23777e+01,    3.18503e+01
   3.68000e+03,    4.16587e+00,    3.23010e+01,    3.18616e+01
   3.69000e+03,    4.16214e+00,    3.22248e+01,    3.18729e+01
   3.70000e+03,    4.15839e+00,    3.21489e+01,    3.18842e+01
   3.71000e+03,    4.15464e+00,    3.20735e+01,    3.18954e+01
   3.72000e+03,    4.15088e+00,    3.19984e+01,    3.19066e+01
   3.73000e+03,    4.14711e+00,    3.19237e+01,    3.19177e+01
   3.74000e+03,    4.14333e+00,    3.18495e+01,    3.19288e+01
   3.75000e+03,    4.13955e+00,    3.17756e+01,    3.19399e+01
   3.76000e+03,    4.13576e+00,    3.17021e+01,    3.19509e+01
   3.77000e+03,    4.13196e+00,    3.16289e+01,    3.19619e+01
   3.78000e+03,    4.12816e+00,    3.15562e+01,    3.19728e+01
   3.79000e+03,    4.12435e+00,    3.14838e+01,    3.19837e+01
   3.80000e+03,    4.12053e+00,    3.14118e+01,    3.19946e+01
   3.81000e+03,    4.11670e+00,    3.13402e+01,    3.20054e+01
   3.82000e+03,    4.11288e+00,    3.12689e+01,    3.20162e+01
   3.83000e+03,    4.10904e+00,    3.11980e+01,    3.20270e+01
   3.84000e+03,    4.10520e+00,    3.11275e+01,    3.20377e+01
   3.85000e+03,    4.10136e+00,    3.10573e+01,    3.20483e+01
   3.86000e+03,    4.09751e+00,    3.09874e+01,    3.20590e+01
   3.87000e+03,    4.09366e+00,    3.09179e+01,    3.20696e+01
   3.88000e+03,    4.08980e+00,    3.08488e+01,    3.20801e+01
   3.89000e+03,    4.08594e+00,    3.07800e+01,    3.20907e+01
   3.90000e+03,    4.08208e+00,    3.07115e+01,    3.21011e+01
   3.91000e+03,    4.07821e+00,    3.06434e+01,    3.21116e+01
   3.92000e+03,    4.07434e+00,    3.05757e+01,    3.21220e+01
   3.93000e+03,    4.07046e+00,    3.05082e+01,    3.21324e+01
   3.94000e+03,    4.06659e+00,    3.04411e+01,    3.21427e+01
   3.95000e+03,    4.06271e+00,    3.03743e+01,    3.21530e+01
   3.96000e+03,    4.05882e+00,    3.03079e+01,    3.21633e+01
   3.97000e+03,    4.05494e+00,    3.02418e+01,    3.21735e+01
   3.98000e+03,    4.05106e+00,    3.01760e+01,    3.21837e+01
   3.99000e+03,    4.04717e+00,    3.01105e+01,    3.21939e+01
   4.00000e+03,    4.04328e+00,    3.00453e+01,    3.22040e+01
   4.01000e+03,    4.03939e+00,    2.99805e+01,    3.22141e+01
   4.02000e+03,    4.03550e+00,    2.99159e+01,    3.22241e+01
   4.03000e+03,    4.03161e+00,    2.98517e+01,    3.22342e+01
   4.04000e+03,    4.02771e+00,    2.97878e+01,    3.22442e+01
   4.05000e+03,    4.02382e+00,    2.97242e+01,    3.22541e+01
   4.06000e+03,    4.01993e+00,    2.96609e+01,    3.22640e+01
   4.07000e+03,    4.01604e+00,    2.95979e+01,    3.22739e+01
   4.08000e+03,    4.01214e+00,    2.95352e+01,    3.22838e+01
   4.09000e+03,    4.00825e+00,    2.94728e+01,    3.22936e+01
   4.10000e+03,    4.00436e+00,    2.94107e+01,    3.23034e+01
   4.11000e+03,    4.00047e+00,    2.93488e+01,    3.23131e+01
   4.12000e+03,    3.99658e+00,    2.92873e+01,    3.23228e+01
   4.13000e+03,    3.99269e+00,    2.92261e+01,    3.23325e+01
   4.14000e+03,    3.98880e+00,    2.91651e+01,    3.23422e+01
   4.15000e+03,    3.98491e+00,    2.91044e+01,    3.23518e+01
   4.16000e+03,    3.98102e+00,    2.90441e+01,    3.23614e+01
   4.17000e+03,    3.97714e+00,    2.89839e+01,    3.23709e+01
   4.18000e+03,    3.97326e+00,    2.89241e+01,    3.23804e+01
   4.19000e+03,    3.96938e+00,    2.88646e+01,    3.23899e+01
   4.20000e+03,    3.96550e+00,    2.88053e+01,    3.23994e+01
   4.21000e+03,    3.96162e+00,    2.87463e+01,    3.24088e+01
   4.22000e+03,    3.95775e+00,    2.86875e+01,    3.24182e+01
   4.23000e+03,    3.95388e+00,    2.86291e+01,    3.24276e+01
   4.24000e+03,    3.95001e+00,    2.85709e+01,    3.24369e+01
   4.25000e+03,    3.94615e+00,    2.85129e+01,    3.24462e+01
   4.26000e+03,    3.94228e+00,    2.84553e+01,    3.24555e+01
   4.27000e+03,    3.93842e+00,    2.83979e+01,    3.24647e+01
   4.28000e+03,    3.93457e+00,    2.83407e+01,    3.24739e+01
   4.29000e+03,    3.93072e+00,    2.82838e+01,    3.24831e+01
   4.30000e+03,    3.92687e+00,    2.82272e+01,    3.24922e+01
   4.31000e+03,    3.92302e+00,    2.81708e+01,    3.25014e+01
   4.32000e+03,    3.91918e+00,    2.81146e+01,    3.25104e+01
   4.33000e+03,    3.91534e+00,    2.80588e+01,    3.25195e+01
   4.34000e+03,    3.91151e+00,    2.80031e+01,    3.25285e+01
   4.35000e+03,    3.90768e+00,    2.79477e+01,    3.25375e+01
   4.36000e+03,    3.90386e+00,    2.78926e+01,    3.25465e+01
   4.37000e+03,    3.90004e+00,    2.78377e+01,    3.25554e+01
   4.38000e+03,    3.89622e+00,    2.77830e+01,    3.25643e+01
   4.39000e+03,    3.89241e+00,    2.77286e+01,    3.25732e+01
   4.40000e+03,    3.88861e+00,    2.76744e+01,    3.25821e+01
   4.41000e+03,    3.88480e+00,    2.76205e+01,    3.25909e+01
   4.42000e+03,    3.88101e+00,    2.75668e+01,    3.25997e+01
   4.43000e+03,    3.87722e+00,    2.75133e+01,    3.26085e+01
   4.44000e+03,    3.87343e+00,    2.74601e+01,    3.26172e+01
   4.45000e+03,    3.86965e+00,    2.74071e+01,    3.26259e+01
   4.46000e+03,    3.86588e+00,    2.73543e+01,    3.26346e+01
   4.47000e+03,    3.86211e+00,    2.73018e+01,    3.26432e+01
   4.48000e+03,    3.85834e+00,    2.72494e+01,    3.26519e+01
   4.49000e+03,    3.85458e+00,    2.71973e+01,    3.26605e+01
   4.50000e+03,    3.85083e+00,    2.71455e+01,    3.26690e+01
   4.51000e+03,    3.84708e+00,    2.70938e+01,    3.26776e+01
   4.52000e+03,    3.84334e+00,    2.70424e+01,    3.26861e+01
   4.53000e+03,    3.83961e+00,    2.69911e+01,    3.26946e+01
   4.54000e+03,    3.83588e+00,    2.69401e+01,    3.27031e+01
   4.55000e+03,    3.83216e+00,    2.68894e+01,    3.27115e+01
   4.56000e+03,    3.82844e+00,    2.68388e+01,    3.27199e+01
   4.57000e+03,    3.82473e+00,    2.67884e+01,    3.27283e+01
   4.58000e+03,    3.82103e+00,    2.67383e+01,    3.27366e+01
   4.59000e+03,    3.81733e+00,    2.66884e+01,    3.27450e+01
   4.60000e+03,    3.81364e+00,    2.66386e+01,    3.27533e+01
   4.61000e+03,    3.80996e+00,    2.65891e+01,    3.27616e+01
   4.62000e+03,    3.80628e+00,    2.65398e+01,    3.27698e+01
   4.63000e+03,    3.80262e+00,    2.64907e+01,    3.27780e+01
   4.64000e+03,    3.79895e+00,    2.64418e+01,    3.27862e+01
   4.65000e+03,    3.79530e+00,    2.63931e+01,    3.27944e+01
   4.66000e+03,    3.79165e+00,    2.63446e+01,    3.28026e+01
   4.67000e+03,    3.78801e+00,    2.62963e+01,    3.28107e+01
   4.68000e+03,    3.78437e+00,    2.62482e+01,    3.28188e+01
   4.69000e+03,    3.78075e+00,    2.62003e+01,    3.28269e+01
   4.70000e+03,    3.77713e+00,    2.61526e+01,    3.28349e+01
   4.71000e+03,    3.77352e+00,    2.61051e+01,    3.28429e+01
   4.72000e+03,    3.76991e+00,    2.60578e+01,    3.28509e+01
   4.73000e+03,    3.76631e+00,    2.60107e+01,    3.28589e+01
   4.74000e+03,    3.76272e+00,    2.59637e+01,    3.28668e+01
   4.75000e+03,    3.75914e+00,    2.59170e+01,    3.28748e+01
   4.76000e+03,    3.75557e+00,    2.58704e+01,    3.28827e+01
   4.77000e+03,    3.75200e+00,    2.58241e+01,    3.28906e+01
   4.78000e+03,    3.74844e+00,    2.57779e+01,    3.28984e+01
   4.79000e+03,    3.74489e+00,    2.57319e+01,    3.29062e+01
   4.80000e+03,    3.74135e+00,    2.56861e+01,    3.29140e+01
   4.81000e+03,    3.73781e+00,    2.56405e+01,    3.29218e+01
   4.82000e+03,    3.73429e+00,    2.55950e+01,    3.29296e+01
   4.83000e+03,    3.73077e+00,    2.55497e+01,    3.29373e+01
   4.84000e+03,    3.72726e+00,    2.55047e+01,    3.29450e+01
   4.85000e+03,    3.72375e+00,    2.54598e+01,    3.29527e+01
   4.86000e+03,    3.72026e+00,    2.54150e+01,    3.29604e+01
   4.87000e+03,    3.71677e+00,    2.53705e+01,    3.29680e+01
   4.88000e+03,    3.71329e+00,    2.53261e+01,    3.29757e+01
   4.89000e+03,    3.70982e+00,    2.52819e+01,    3.29833e+01
   4.90000e+03,    3.70636e+00,    2.52379e+01,    3.29908e+01
   4.91000e+03,    3.70291e+00,    2.51940e+01,    3.29984e+01
   4.92000e+03,    3.69946e+00,    2.51503e+01,    3.30059e+01
   4.93000e+03,    3.69602e+00,    2.51068e+01,    3.30134e+01
   4.94000e+03,    3.69259e+00,    2.50635e+01,    3.30209e+01
   4.95000e+03,    3.68917e+00,    2.50203e+01,    3.30284e+01
   4.96000e+03,    3.68576e+00,    2.49773e+01,    3.30358e+01
   4.97000e+03,    3.68236e+00,    2.49344e+01,    3.30432e+01
   4.98000e+03,    3.67897e+00,    2.48918e+01,    3.30506e+01
   4.99000e+03,    3.67558e+00,    2.48493e+01,    3.30580e+01
   5.00000e+03,    3.67220e+00,    2.48069e+01,    3.30654e+01
   5.01000e+03,    3.66883e+00,    2.47647e+01,    3.30727e+01
   5.02000e+03,    3.66547e+00,    2.47227e+01,    3.30800e+01
   5.03000e+03,    3.66212e+00,    2.46808e+01,    3.30873e+01
   5.04000e+03,    3.65878e+00,    2.46391e+01,    3.30946e+01
   5.05000e+03,    3.65544e+00,    2.45976e+01,    3.31018e+01
   5.06000e+03,    3.65212e+00,    2.45562e+01,    3.31090e+01
   5.07000e+03,    3.64880e+00,    2.45149e+01,    3.31163e+01
   5.08000e+03,    3.64550e+00,    2.44739e+01,    3.31234e+01
   5.09000e+03,    3.64220e+00,    2.44329e+01,    3.31306e+01
   5.10000e+03,    3.63891e+00,    2.43922e+01,    3.31377e+01
   5.11000e+03,    3.63562e+00,    2.43516e+01,    3.31449e+01
   5.12000e+03,    3.63235e+00,    2.43111e+01,    3.31520e+01
   5.13000e+03,    3.62909e+00,    2.42708e+01,    3.31591e+01
   5.14000e+03,    3.62583e+00,    2.42306e+01,    3.31661e+01
   5.15000e+03,    3.62259e+00,    2.41906e+01,    3.31732e+01
   5.16000e+03,    3.61935e+00,    2.41507e+01,    3.31802e+01
   5.17000e+03,    3.61612e+00,    2.41110e+01,    3.31872e+01
   5.18000e+03,    3.61290e+00,    2.40715e+01,    3.31942e+01
   5.19000e+03,    3.60969e+00,    2.40320e+01,    3.32011e+01
   5.20000e+03,    3.60649e+00,    2.39928e+01,    3.32081e+01
   5.21000e+03,    3.60330e+00,    2.39536e+01,    3.32150e+01
   5.22000e+03,    3.60012e+00,    2.39146e+01,    3.32219e+01
   5.23000e+03,    3.59694e+00,    2.38758e+01,    3.32288e+01
   5.24000e+03,    3.59378e+00,    2.38371e+01,    3.32357e+01
   5.25000e+03,    3.59062e+00,    2.37985e+01,    3.32425e+01
   5.26000e+03,    3.58747e+00,    2.37601e+01,    3.32494e+01
   5.27000e+03,    3.58434e+00,    2.37218e+01,    3.32562e+01
   5.28000e+03,    3.58121e+00,    2.36837e+01,    3.32630e+01
   5.29000e+03,    3.57809e+00,    2.36457e+01,    3.32697e+01
   5.30000e+03,    3.57497e+00,    2.36078e+01,    3.32765e+01
   5.31000e+03,    3.57187e+00,    2.35701e+01,    3.32832e+01
   5.32000e+03,    3.56878e+00,    2.35325e+01,    3.32899e+01
   5.33000e+03,    3.56570e+00,    2.34950e+01,    3.32966e+01
   5.34000e+03,    3.56262e+00,    2.34577e+01,    3.33033e+01
   5.35000e+03,    3.55955e+00,    2.34205e+01,    3.33100e+01
   5.36000e+03,    3.55650e+00,    2.33835e+01,    3.33166e+01
   5.37000e+03,    3.55345e+00,    2.33465e+01,    3.33233e+01
   5.38000e+03,    3.55041e+00,    2.33097e+01,    3.33299e+01
   5.39000e+03,    3.54738e+00,    2.32731e+01,    3.33365e+01
   5.40000e+03,    3.54436e+00,    2.32365e+01,    3.33430e+01
   5.41000e+03,    3.54135e+00,    2.32001e+01,    3.33496e+01
   5.42000e+03,    3.53834e+00,    2.31639e+01,    3.33561e+01
   5.43000e+03,    3.53535e+00,    2.31277e+01,    3.33626e+01
   5.44000e+03,    3.53237e+00,    2.30917e+01,    3.33691e+01
   5.45000e+03,    3.52939e+00,    2.30558e+01,    3.33756e+01
   5.46000e+03,    3.52642e+00,    2.30200e+01,    3.33821e+01
   5.47000e+03,    3.52347e+00,    2.29844e+01,    3.33885e+01
   5.48000e+03,    3.52052e+00,    2.29489e+01,    3.33950e+01
   5.49000e+03,    3.51758e+00,    2.29135e+01,    3.34014e+01
   5.50000e+03,    3.51465e+00,    2.28782e+01,    3.34078e+01
   5.51000e+03,    3.51172e+00,    2.28431e+01,    3.34142e+01
   5.52000e+03,    3.50881e+00,    2.28081e+01,    3.34205e+01
   5.53000e+03,    3.50591e+00,    2.27732e+01,    3.34269e+01
   5.54000e+03,    3.50301e+00,    2.27384e+01,    3.34332e+01
   5.55000e+03,    3.50013e+00,    2.27037e+01,    3.34395e+01
   5.56000e+03,    3.49725e+00,    2.26692e+01,    3.34458e+01
   5.57000e+03,    3.49438e+00,    2.26348e+01,    3.34521e+01
   5.58000e+03,    3.49152e+00,    2.26005e+01,    3.34584e+01
   5.59000e+03,    3.48867e+00,    2.25663e+01,    3.34646e+01
   5.60000e+03,    3.48583e+00,    2.25322e+01,    3.34709e+01
   5.61000e+03,    3.48300e+00,    2.24982e+01,    3.34771e+01
   5.62000e+03,    3.48017e+00,    2.24644e+01,    3.34833e+01
   5.63000e+03,    3.47736e+00,    2.24307e+01,    3.34895e+01
   5.64000e+03,    3.47455e+00,    2.23971e+01,    3.34956e+01
   5.65000e+03,    3.47176e+00,    2.23636e+01,    3.35018e+01
   5.66000e+03,    3.46897e+00,    2.23302e+01,    3.35079e+01
   5.67000e+03,    3.46619e+00,    2.22969e+01,    3.35140e+01
   5.68000e+03,    3.46342e+00,    2.22638e+01,    3.35201e+01
   5.69000e+03,    3.46066e+00,    2.22307e+01,    3.35262e+01
   5.70000e+03,    3.45790e+00,    2.21978e+01,    3.35323e+01
   5.71000e+03,    3.45516e+00,    2.21650e+01,    3.35384e+01
   5.72000e+03,    3.45243e+00,    2.21323e+01,    3.35444e+01
   5.73000e+03,    3.44970e+00,    2.20997e+01,    3.35504e+01
   5.74000e+03,    3.44698e+00,    2.20672e+01,    3.35565e+01
   5.75000e+03,    3.44427e+00,    2.20348e+01,    3.35625e+01
   5.76000e+03,    3.44157e+00,    2.20025e+01,    3.35684e+01
   5.77000e+03,    3.43888e+00,    2.19703e+01,    3.35744e+01
   5.78000e+03,    3.43620e+00,    2.19383e+01,    3.35804e+01
   5.79000e+03,    3.43352e+00,    2.19063e+01,    3.35863e+01
   5.80000e+03,    3.43086e+00,    2.18745e+01,    3.35922e+01
   5.81000e+03,    3.42820e+00,    2.18427e+01,    3.35981e+01
   5.82000e+03,    3.42555e+00,    2.18111e+01,    3.36040e+01
   5.83000e+03,    3.42291e+00,    2.17795e+01,    3.36099e+01
   5.84000e+03,    3.42028e+00,    2.17481e+01,    3.36158e+01
   5.85000e+03,    3.41766e+00,    2.17168e+01,    3.36216e+01
   5.86000e+03,    3.41504e+00,    2.16855e+01,    3.36274e+01
   5.87000e+03,    3.41244e+00,    2.16544e+01,    3.36333e+01
   5.88000e+03,    3.40984e+00,    2.16234e+01,    3.36391e+01
   5.89000e+03,    3.40725e+00,    2.15925e+01,    3.36449e+01
   5.90000e+03,    3.40467e+00,    2.15616e+01,    3.36506e+01
   5.91000e+03,    3.40210e+00,    2.15309e+01,    3.36564e+01
   5.92000e+03,    3.39954e+00,    2.15003e+01,    3.36622e+01
   5.93000e+03,    3.39698e+00,    2.14698e+01,    3.36679e+01
   5.94000e+03,    3.39444e+00,    2.14393e+01,    3.36736e+01
   5.95000e+03,    3.39190e+00,    2.14090e+01,    3.36793e+01
   5.96000e+03,    3.38937e+00,    2.13788e+01,    3.36850e+01
   5.97000e+03,    3.38685e+00,    2.13486e+01,    3.36907e+01
   5.98000e+03,    3.38433e+00,    2.13186e+01,    3.36964e+01
   5.99000e+03,    3.38183e+00,    2.12887e+01,    3.37020e+01
   6.00000e+03,    3.37933e+00,    2.12588e+01,    3.37076e+01
   6.01000e+03,    3.37685e+00,    2.12291e+01,    3.37133e+01
   6.02000e+03,    3.37437e+00,    2.11994e+01,    3.37189e+01
   6.03000e+03,    3.37189e+00,    2.11698e+01,    3.37245e+01
   6.04000e+03,    3.36943e+00,    2.11404e+01,    3.37301e+01
   6.05000e+03,    3.36698e+00,    2.11110e+01,    3.37356e+01
   6.06000e+03,    3.36453e+00,    2.10817e+01,    3.37412e+01
   6.07000e+03,    3.36209e+00,    2.10525e+01,    3.37467e+01
   6.08000e+03,    3.35966e+00,    2.10234e+01,    3.37523e+01
   6.09000e+03,    3.35724e+00,    2.09944e+01,    3.37578e+01
   6.10000e+03,    3.35482e+00,    2.09655e+01,    3.37633e+01
   6.11000e+03,    3.35242e+00,    2.09367e+01,    3.37688e+01
   6.12000e+03,    3.35002e+00,    2.09079e+01,    3.37743e+01
   6.13000e+03,    3.34763e+00,    2.08793e+01,    3.37797e+01
   6.14000e+03,    3.34525e+00,    2.08507e+01,    3.37852e+01
   6.15000e+03,    3.34287e+00,    2.08223e+01,    3.37906e+01
   6.16000e+03,    3.34050e+00,    2.07939e+01,    3.37961e+01
   6.17000e+03,    3.33815e+00,    2.07656e+01,    3.38015e+01
   6.18000e+03,    3.33580e+00,    2.07374e+01,    3.38069e+01
   6.19000e+03,    3.33345e+00,    2.07093e+01,    3.38123e+01
   6.20000e+03,    3.33112e+00,    2.06813e+01,    3.38177e+01
   6.21000e+03,    3.32879e+00,    2.06533e+01,    3.38230e+01
   6.22000e+03,    3.32647e+00,    2.06255e+01,    3.38284e+01
   6.23000e+03,    3.32416e+00,    2.05977e+01,    3.38337e+01
   6.24000e+03,    3.32186e+00,    2.05700e+01,    3.38391e+01
   6.25000e+03,    3.31956e+00,    2.05424e+01,    3.38444e+01
   6.26000e+03,    3.31728e+00,    2.05149e+01,    3.38497e+01
   6.27000e+03,    3.31500e+00,    2.04875e+01,    3.38550e+01
   6.28000e+03,    3.31272e+00,    2.04601e+01,    3.38602e+01
   6.29000e+03,    3.31046e+00,    2.04329e+01,    3.38655e+01
   6.30000e+03,    3.30820e+00,    2.04057e+01,    3.38708e+01
   6.31000e+03,    3.30595e+00,    2.03786e+01,    3.38760e+01
   6.32000e+03,    3.30371e+00,    2.03516e+01,    3.38813e+01
   6.33000e+03,    3.30148e+00,    2.03246e+01,    3.38865e+01
   6.34000e+03,    3.29925e+00,    2.02978e+01,    3.38917e+01
   6.35000e+03,    3.29703e+00,    2.02710e+01,    3.38969e+01
   6.36000e+03,    3.29482e+00,    2.02443e+01,    3.39021e+01
   6.37000e+03,    3.29262e+00,    2.02177e+01,    3.39072e+01
   6.38000e+03,    3.29042e+00,    2.01912e+01,    3.39124e+01
   6.39000e+03,    3.28823e+00,    2.01647e+01,    3.39176e+01
   6.40000e+03,    3.28605e+00,    2.01384e+01,    3.39227e+01
   6.41000e+03,    3.28388e+00,    2.01121e+01,    3.39278e+01
   6.42000e+03,    3.28171e+00,    2.00859e+01,    3.39329e+01
   6.43000e+03,    3.27955e+00,    2.00597e+01,    3.39381e+01
   6.44000e+03,    3.27740e+00,    2.00337e+01,    3.39431e+01
   6.45000e+03,    3.27525e+00,    2.00077e+01,    3.39482e+01
   6.46000e+03,    3.27312e+00,    1.99818e+01,    3.39533e+01
   6.47000e+03,    3.27099e+00,    1.99560e+01,    3.39584e+01
   6.48000e+03,    3.26886e+00,    1.99302e+01,    3.39634e+01
   6.49000e+03,    3.26675e+00,    1.99045e+01,    3.39685e+01
   6.50000e+03,    3.26464e+00,    1.98789e+01,    3.39735e+01
   6.51000e+03,    3.26254e+00,    1.98534e+01,    3.39785e+01
   6.52000e+03,    3.26044e+00,    1.98280e+01,    3.39835e+01
   6.53000e+03,    3.25836e+00,    1.98026e+01,    3.39885e+01
   6.54000e+03,    3.25628e+00,    1.97773e+01,    3.39935e+01
   6.55000e+03,    3.25421e+00,    1.97521e+01,    3.39985e+01
   6.56000e+03,    3.25214e+00,    1.97269e+01,    3.40034e+01
   6.57000e+03,    3.25008e+00,    1.97018e+01,    3.40084e+01
   6.58000e+03,    3.24803e+00,    1.96768e+01,    3.40133e+01
   6.59000e+03,    3.24599e+00,    1.96519e+01,    3.40182e+01
   6.60000e+03,    3.24395e+00,    1.96270e+01,    3.40232e+01
   6.61000e+03,    3.24192e+00,    1.96023e+01,    3.40281e+01
   6.62000e+03,    3.23989e+00,    1.95775e+01,    3.40330e+01
   6.63000e+03,    3.23788e+00,    1.95529e+01,    3.40379e+01
   6.64000e+03,    3.23587e+00,    1.95283e+01,    3.40427e+01
   6.65000e+03,    3.23387e+00,    1.95038e+01,    3.40476e+01
   6.66000e+03,    3.23187e+00,    1.94794e+01,    3.40525e+01
   6.67000e+03,    3.22988e+00,    1.94550e+01,    3.40573e+01
   6.68000e+03,    3.22790e+00,    1.94307e+01,    3.40622e+01
   6.69000e+03,    3.22592e+00,    1.94065e+01,    3.40670e+01
   6.70000e+03,    3.22395e+00,    1.93824e+01,    3.40718e+01
   6.71000e+03,    3.22199e+00,    1.93583e+01,    3.40766e+01
   6.72000e+03,    3.22004e+00,    1.93343e+01,    3.40814e+01
   6.73000e+03,    3.21809e+00,    1.93103e+01,    3.40862e+01
   6.74000e+03,    3.21615e+00,    1.92865e+01,    3.40910e+01
   6.75000e+03,    3.21421e+00,    1.92626e+01,    3.40957e+01
   6.76000e+03,    3.21228e+00,    1.92389e+01,    3.41005e+01
   6.77000e+03,    3.21036e+00,    1.92152e+01,    3.41052e+01
   6.78000e+03,    3.20845e+00,    1.91916e+01,    3.41100e+01
   6.79000e+03,    3.20654e+00,    1.91681e+01,    3.41147e+01
   6.80000e+03,    3.20464e+00,    1.91446e+01,    3.41194e+01
   6.81000e+03,    3.20274e+00,    1.91212e+01,    3.41241e+01
   6.82000e+03,    3.20085e+00,    1.90979e+01,    3.41288e+01
   6.83000e+03,    3.19897e+00,    1.90746e+01,    3.41335e+01
   6.84000e+03,    3.19709e+00,    1.90514e+01,    3.41382e+01
   6.85000e+03,    3.19522e+00,    1.90282e+01,    3.41429e+01
   6.86000e+03,    3.19336e+00,    1.90051e+01,    3.41475e+01
   6.87000e+03,    3.19150e+00,    1.89821e+01,    3.41522e+01
   6.88000e+03,    3.18965e+00,    1.89592e+01,    3.41568e+01
   6.89000e+03,    3.18781e+00,    1.89363e+01,    3.41614e+01
   6.90000e+03,    3.18597e+00,    1.89135e+01,    3.41661e+01
   6.91000e+03,    3.18414e+00,    1.88907e+01,    3.41707e+01
   6.92000e+03,    3.18231e+00,    1.88680e+01,    3.41753e+01
   6.93000e+03,    3.18049e+00,    1.88454e+01,    3.41799e+01
   6.94000e+03,    3.17868e+00,    1.88228e+01,    3.41845e+01
   6.95000e+03,    3.17687e+00,    1.88003e+01,    3.41890e+01
   6.96000e+03,    3.17507e+00,    1.87778e+01,    3.41936e+01
   6.97000e+03,    3.17328e+00,    1.87554e+01,    3.41982e+01
   6.98000e+03,    3.17149e+00,    1.87331e+01,    3.42027e+01
   6.99000e+03,    3.16971e+00,    1.87108e+01,    3.42072e+01
   7.00000e+03,    3.16793e+00,    1.86886e+01,    3.42118e+01
   7.01000e+03,    3.16616e+00,    1.86665e+01,    3.42163e+01
   7.02000e+03,    3.16440e+00,    1.86444e+01,    3.42208e+01
   7.03000e+03,    3.16264e+00,    1.86224e+01,    3.42253e+01
   7.04000e+03,    3.16089e+00,    1.86004e+01,    3.42298e+01
   7.05000e+03,    3.15914e+00,    1.85785e+01,    3.42343e+01
   7.06000e+03,    3.15740e+00,    1.85567e+01,    3.42388e+01
   7.07000e+03,    3.15567e+00,    1.85349e+01,    3.42432e+01
   7.08000e+03,    3.15394e+00,    1.85132e+01,    3.42477e+01
   7.09000e+03,    3.15222e+00,    1.84915e+01,    3.42521e+01
   7.10000e+03,    3.15050e+00,    1.84699e+01,    3.42566e+01
   7.11000e+03,    3.14879e+00,    1.84484e+01,    3.42610e+01
   7.12000e+03,    3.14708e+00,    1.84269e+01,    3.42654e+01
   7.13000e+03,    3.14539e+00,    1.84055e+01,    3.42699e+01
   7.14000e+03,    3.14369e+00,    1.83841e+01,    3.42743e+01
   7.15000e+03,    3.14201e+00,    1.83628e+01,    3.42787e+01
   7.16000e+03,    3.14032e+00,    1.83415e+01,    3.42831e+01
   7.17000e+03,    3.13865e+00,    1.83203e+01,    3.42874e+01
   7.18000e+03,    3.13698e+00,    1.82992e+01,    3.42918e+01
   7.19000e+03,    3.13531e+00,    1.82781e+01,    3.42962e+01
   7.20000e+03,    3.13366e+00,    1.82570e+01,    3.43005e+01
   7.21000e+03,    3.13200e+00,    1.82361e+01,    3.43049e+01
   7.22000e+03,    3.13036e+00,    1.82151e+01,    3.43092e+01
   7.23000e+03,    3.12871e+00,    1.81943e+01,    3.43136e+01
   7.24000e+03,    3.12708e+00,    1.81735e+01,    3.43179e+01
   7.25000e+03,    3.12545e+00,    1.81527e+01,    3.43222e+01
   7.26000e+03,    3.12382e+00,    1.81320e+01,    3.43265e+01
   7.27000e+03,    3.12220e+00,    1.81114e+01,    3.43308e+01
   7.28000e+03,    3.12059e+00,    1.80908e+01,    3.43351e+01
   7.29000e+03,    3.11898e+00,    1.80702e+01,    3.43394e+01
   7.30000e+03,    3.11738e+00,    1.80498e+01,    3.43436e+01
   7.31000e+03,    3.11578e+00,    1.80293e+01,    3.43479e+01
   7.32000e+03,    3.11419e+00,    1.80089e+01,    3.43522e+01
   7.33000e+03,    3.11260e+00,    1.79886e+01,    3.43564e+01
   7.34000e+03,    3.11102e+00,    1.79684e+01,    3.43607e+01
   7.35000e+03,    3.10944e+00,    1.79481e+01,    3.43649e+01
   7.36000e+03,    3.10787e+00,    1.79280e+01,    3.43691e+01
   7.37000e+03,    3.10631e+00,    1.79079e+01,    3.43733e+01
   7.38000e+03,    3.10475e+00,    1.78878e+01,    3.43775e+01
   7.39000e+03,    3.10319e+00,    1.78678e+01,    3.43818e+01
   7.40000e+03,    3.10164e+00,    1.78479e+01,    3.43859e+01
   7.41000e+03,    3.10010e+00,    1.78280e+01,    3.43901e+01
   7.42000e+03,    3.09856e+00,    1.78081e+01,    3.43943e+01
   7.43000e+03,    3.09703e+00,    1.77883e+01,    3.43985e+01
   7.44000e+03,    3.09550e+00,    1.77686e+01,    3.44027e+01
   7.45000e+03,    3.09398e+00,    1.77489e+01,    3.44068e+01
   7.46000e+03,    3.09246e+00,    1.77292e+01,    3.44110e+01
   7.47000e+03,    3.09094e+00,    1.77096e+01,    3.44151e+01
   7.48000e+03,    3.08944e+00,    1.76901e+01,    3.44192e+01
   7.49000e+03,    3.08793e+00,    1.76706e+01,    3.44234e+01
   7.50000e+03,    3.08644e+00,    1.76511e+01,    3.44275e+01
   7.51000e+03,    3.08494e+00,    1.76317e+01,    3.44316e+01
   7.52000e+03,    3.08346e+00,    1.76124e+01,    3.44357e+01
   7.53000e+03,    3.08197e+00,    1.75931e+01,    3.44398e+01
   7.54000e+03,    3.08049e+00,    1.75739e+01,    3.44439e+01
   7.55000e+03,    3.07902e+00,    1.75547e+01,    3.44480e+01
   7.56000e+03,    3.07755e+00,    1.75355e+01,    3.44520e+01
   7.57000e+03,    3.07609e+00,    1.75164e+01,    3.44561e+01
   7.58000e+03,    3.07463e+00,    1.74974e+01,    3.44602e+01
   7.59000e+03,    3.07318e+00,    1.74784e+01,    3.44642e+01
   7.60000e+03,    3.07173e+00,    1.74594e+01,    3.44683e+01
   7.61000e+03,    3.07029e+00,    1.74405e+01,    3.44723e+01
   7.62000e+03,    3.06885e+00,    1.74216e+01,    3.44763e+01
   7.63000e+03,    3.06742e+00,    1.74028e+01,    3.44804e+01
   7.64000e+03,    3.06599e+00,    1.73841e+01,    3.44844e+01
   7.65000e+03,    3.06457e+00,    1.73653e+01,    3.44884e+01
   7.66000e+03,    3.06315e+00,    1.73467e+01,    3.44924e+01
   7.67000e+03,    3.06173e+00,    1.73280e+01,    3.44964e+01
   7.68000e+03,    3.06032e+00,    1.73095e+01,    3.45004e+01
   7.69000e+03,    3.05892e+00,    1.72909e+01,    3.45043e+01
   7.70000e+03,    3.05752e+00,    1.72725e+01,    3.45083e+01
   7.71000e+03,    3.05612e+00,    1.72540e+01,    3.45123e+01
   7.72000e+03,    3.05473e+00,    1.72356e+01,    3.45163e+01
   7.73000e+03,    3.05335e+00,    1.72173e+01,    3.45202e+01
   7.74000e+03,    3.05196e+00,    1.71990e+01,    3.45242e+01
   7.75000e+03,    3.05059e+00,    1.71807e+01,    3.45281e+01
   7.76000e+03,    3.04922e+00,    1.71625e+01,    3.45320e+01
   7.77000e+03,    3.04785e+00,    1.71443e+01,    3.45359e+01
   7.78000e+03,    3.04648e+00,    1.71262e+01,    3.45399e+01
   7.79000e+03,    3.04513e+00,    1.71082e+01,    3.45438e+01
   7.80000e+03,    3.04377e+00,    1.70901e+01,    3.45477e+01
   7.81000e+03,    3.04242e+00,    1.70721e+01,    3.45516e+01
   7.82000e+03,    3.04108e+00,    1.70542e+01,    3.45555e+01
   7.83000e+03,    3.03974e+00,    1.70363e+01,    3.45594e+01
   7.84000e+03,    3.03840e+00,    1.70184e+01,    3.45632e+01
   7.85000e+03,    3.03707e+00,    1.70006e+01,    3.45671e+01
   7.86000e+03,    3.03574e+00,    1.69829e+01,    3.45710e+01
   7.87000e+03,    3.03442e+00,    1.69651e+01,    3.45748e+01
   7.88000e+03,    3.03310e+00,    1.69475e+01,    3.45787e+01
   7.89000e+03,    3.03179e+00,    1.69298e+01,    3.45825e+01
   7.90000e+03,    3.03048e+00,    1.69122e+01,    3.45864e+01
   7.91000e+03,    3.02917e+00,    1.68947e+01,    3.45902e+01
   7.92000e+03,    3.02787e+00,    1.68772e+01,    3.45940e+01
   7.93000e+03,    3.02657e+00,    1.68597e+01,    3.45979e+01
   7.94000e+03,    3.02528e+00,    1.68423e+01,    3.46017e+01
   7.95000e+03,    3.02399e+00,    1.68249e+01,    3.46055e+01
   7.96000e+03,    3.02271e+00,    1.68076e+01,    3.46093e+01
   7.97000e+03,    3.02143e+00,    1.67903e+01,    3.46131e+01
   7.98000e+03,    3.02016e+00,    1.67730e+01,    3.46169e+01
   7.99000e+03,    3.01888e+00,    1.67558e+01,    3.46206e+01
   8.00000e+03,    3.01762e+00,    1.67386e+01,    3.46244e+01
   8.01000e+03,    3.01636e+00,    1.67215e+01,    3.46282e+01
   8.02000e+03,    3.01510e+00,    1.67044e+01,    3.46319e+01
   8.03000e+03,    3.01384e+00,    1.66874e+01,    3.46357e+01
   8.04000e+03,    3.01259e+00,    1.66704e+01,    3.46395e+01
   8.05000e+03,    3.01135e+00,    1.66534e+01,    3.46432e+01
   8.06000e+03,    3.01010e+00,    1.66365e+01,    3.46469e+01
   8.07000e+03,    3.00887e+00,    1.66196e+01,    3.46507e+01
   8.08000e+03,    3.00763e+00,    1.66027e+01,    3.46544e+01
   8.09000e+03,    3.00640e+00,    1.65859e+01,    3.46581e+01
   8.10000e+03,    3.00518e+00,    1.65692e+01,    3.46618e+01
   8.11000e+03,    3.00395e+00,    1.65524e+01,    3.46655e+01
   8.12000e+03,    3.00274e+00,    1.65357e+01,    3.46692e+01
   8.13000e+03,    3.00152e+00,    1.65191e+01,    3.46729e+01
   8.14000e+03,    3.00031e+00,    1.65025e+01,    3.46766e+01
   8.15000e+03,    2.99911e+00,    1.64859e+01,    3.46803e+01
   8.16000e+03,    2.99791e+00,    1.64694e+01,    3.46840e+01
   8.17000e+03,    2.99671e+00,    1.64529e+01,    3.46876e+01
   8.18000e+03,    2.99551e+00,    1.64365e+01,    3.46913e+01
   8.19000e+03,    2.99432e+00,    1.64200e+01,    3.46950e+01
   8.20000e+03,    2.99314e+00,    1.64037e+01,    3.46986e+01
   8.21000e+03,    2.99196e+00,    1.63873e+01,    3.47023e+01
   8.22000e+03,    2.99078e+00,    1.63710e+01,    3.47059e+01
   8.23000e+03,    2.98960e+00,    1.63548e+01,    3.47095e+01
   8.24000e+03,    2.98843e+00,    1.63386e+01,    3.47132e+01
   8.25000e+03,    2.98727e+00,    1.63224e+01,    3.47168e+01
   8.26000e+03,    2.98610e+00,    1.63062e+01,    3.47204e+01
   8.27000e+03,    2.98494e+00,    1.62901e+01,    3.47240e+01
   8.28000e+03,    2.98379e+00,    1.62741e+01,    3.47276e+01
   8.29000e+03,    2.98264e+00,    1.62580e+01,    3.47312e+01
   8.30000e+03,    2.98149e+00,    1.62420e+01,    3.47348e+01
   8.31000e+03,    2.98034e+00,    1.62261e+01,    3.47384e+01
   8.32000e+03,    2.97920e+00,    1.62101e+01,    3.47420e+01
   8.33000e+03,    2.97807e+00,    1.61943e+01,    3.47456e+01
   8.34000e+03,    2.97693e+00,    1.61784e+01,    3.47492e+01
   8.35000e+03,    2.97580e+00,    1.61626e+01,    3.47527e+01
   8.36000e+03,    2.97468e+00,    1.61468e+01,    3.47563e+01
   8.37000e+03,    2.97355e+00,    1.61311e+01,    3.47598e+01
   8.38000e+03,    2.97244e+00,    1.61154e+01,    3.47634e+01
   8.39000e+03,    2.97132e+00,    1.60997e+01,    3.47669e+01
   8.40000e+03,    2.97021e+00,    1.60841e+01,    3.47705e+01
   8.41000e+03,    2.96910e+00,    1.60685e+01,    3.47740e+01
   8.42000e+03,    2.96800e+00,    1.60529e+01,    3.47775e+01
   8.43000e+03,    2.96690e+00,    1.60374e+01,    3.47811e+01
   8.44000e+03,    2.96580e+00,    1.60219e+01,    3.47846e+01
   8.45000e+03,    2.96471e+00,    1.60065e+01,    3.47881e+01
   8.46000e+03,    2.96362e+00,    1.59911e+01,    3.47916e+01
   8.47000e+03,    2.96253e+00,    1.59757e+01,    3.47951e+01
   8.48000e+03,    2.96145e+00,    1.59603e+01,    3.47986e+01
   8.49000e+03,    2.96037e+00,    1.59450e+01,    3.48021e+01
   8.50000e+03,    2.95929e+00,    1.59298e+01,    3.48056e+01
   8.51000e+03,    2.95822e+00,    1.59145e+01,    3.48090e+01
   8.52000e+03,    2.95715e+00,    1.58993e+01,    3.48125e+01
   8.53000e+03,    2.95608e+00,    1.58841e+01,    3.48160e+01
   8.54000e+03,    2.95502e+00,    1.58690e+01,    3.48194e+01
   8.55000e+03,    2.95396e+00,    1.58539e+01,    3.48229e+01
   8.56000e+03,    2.95291e+00,    1.58388e+01,    3.48264e+01
   8.57000e+03,    2.95185e+00,    1.58238e+01,    3.48298e+01
   8.58000e+03,    2.95080e+00,    1.58088e+01,    3.48332e+01
   8.59000e+03,    2.94976e+00,    1.57938e+01,    3.48367e+01
   8.60000e+03,    2.94872e+00,    1.57789e+01,    3.48401e+01
   8.61000e+03,    2.94768e+00,    1.57640e+01,    3.48435e+01
   8.62000e+03,    2.94664e+00,    1.57491e+01,    3.48470e+01
   8.63000e+03,    2.94561e+00,    1.57343e+01,    3.48504e+01
   8.64000e+03,    2.94458e+00,    1.57195e+01,    3.48538e+01
   8.65000e+03,    2.94356e+00,    1.57047e+01,    3.48572e+01
   8.66000e+03,    2.94253e+00,    1.56900e+01,    3.48606e+01
   8.67000e+03,    2.94151e+00,    1.56753e+01,    3.48640e+01
   8.68000e+03,    2.94050e+00,    1.56606e+01,    3.48674e+01
   8.69000e+03,    2.93948e+00,    1.56459e+01,    3.48708e+01
   8.70000e+03,    2.93848e+00,    1.56313e+01,    3.48741e+01
   8.71000e+03,    2.93747e+00,    1.56168e+01,    3.48775e+01
   8.72000e+03,    2.93647e+00,    1.56022e+01,    3.48809e+01
   8.73000e+03,    2.93547e+00,    1.55877e+01,    3.48842e+01
   8.74000e+03,    2.93447e+00,    1.55732e+01,    3.48876e+01
   8.75000e+03,    2.93348e+00,    1.55588e+01,    3.48910e+01
   8.76000e+03,    2.93249e+00,    1.55444e+01,    3.48943e+01
   8.77000e+03,    2.93150e+00,    1.55300e+01,    3.48977e+01
   8.78000e+03,    2.93051e+00,    1.55156e+01,    3.49010e+01
   8.79000e+03,    2.92953e+00,    1.55013e+01,    3.49043e+01
   8.80000e+03,    2.92855e+00,    1.54870e+01,    3.49077e+01
   8.81000e+03,    2.92758e+00,    1.54728e+01,    3.49110e+01
   8.82000e+03,    2.92661e+00,    1.54586e+01,    3.49143e+01
   8.83000e+03,    2.92564e+00,    1.54444e+01,    3.49176e+01
   8.84000e+03,    2.92467e+00,    1.54302e+01,    3.49209e+01
   8.85000e+03,    2.92371e+00,    1.54161e+01,    3.49242e+01
   8.86000e+03,    2.92275e+00,    1.54020e+01,    3.49275e+01
   8.87000e+03,    2.92179e+00,    1.53879e+01,    3.49308e+01
   8.88000e+03,    2.92084e+00,    1.53739e+01,    3.49341e+01
   8.89000e+03,    2.91989e+00,    1.53599e+01,    3.49374e+01
   8.90000e+03,    2.91894e+00,    1.53459e+01,    3.49407e+01
   8.91000e+03,    2.91800e+00,    1.53319e+01,    3.49440e+01
   8.92000e+03,    2.91705e+00,    1.53180e+01,    3.49473e+01
   8.93000e+03,    2.91612e+00,    1.53041e+01,    3.49505e+01
   8.94000e+03,    2.91518e+00,    1.52903e+01,    3.49538e+01
   8.95000e+03,    2.91425e+00,    1.52764e+01,    3.49570e+01
   8.96000e+03,    2.91332e+00,    1.52626e+01,    3.49603e+01
   8.97000e+03,    2.91239e+00,    1.52489e+01,    3.49635e+01
   8.98000e+03,    2.91147e+00,    1.52351e+01,    3.49668e+01
   8.99000e+03,    2.91054e+00,    1.52214e+01,    3.49700e+01
   9.00000e+03,    2.90963e+00,    1.52078e+01,    3.49733e+01
   9.01000e+03,    2.90871e+00,    1.51941e+01,    3.49765e+01
   9.02000e+03,    2.90780e+00,    1.51805e+01,    3.49797e+01
   9.03000e+03,    2.90689e+00,    1.51669e+01,    3.49829e+01
   9.04000e+03,    2.90598e+00,    1.51533e+01,    3.49862e+01
   9.05000e+03,    2.90508e+00,    1.51398e+01,    3.49894e+01
   9.06000e+03,    2.90417e+00,    1.51263e+01,    3.49926e+01
   9.07000e+03,    2.90327e+00,    1.51128e+01,    3.49958e+01
   9.08000e+03,    2.90238e+00,    1.50994e+01,    3.49990e+01
   9.09000e+03,    2.90149e+00,    1.50860e+01,    3.50022e+01
   9.10000e+03,    2.90059e+00,    1.50726e+01,    3.50054e+01
   9.11000e+03,    2.89971e+00,    1.50592e+01,    3.50085e+01
   9.12000e+03,    2.89882e+00,    1.50459e+01,    3.50117e+01
   9.13000e+03,    2.89794e+00,    1.50326e+01,    3.50149e+01
   9.14000e+03,    2.89706e+00,    1.50193e+01,    3.50181e+01
   9.15000e+03,    2.89618e+00,    1.50060e+01,    3.50212e+01
   9.16000e+03,    2.89531e+00,    1.49928e+01,    3.50244e+01
   9.17000e+03,    2.89444e+00,    1.49796e+01,    3.50276e+01
   9.18000e+03,    2.89357e+00,    1.49665e+01,    3.50307e+01
   9.19000e+03,    2.89270e+00,    1.49533e+01,    3.50339e+01
   9.20000e+03,    2.89184e+00,    1.49402e+01,    3.50370e+01
   9.21000e+03,    2.89098e+00,    1.49271e+01,    3.50402e+01
   9.22000e+03,    2.89012e+00,    1.49141e+01,    3.50433e+01
   9.23000e+03,    2.88927e+00,    1.49010e+01,    3.50464e+01
   9.24000e+03,    2.88841e+00,    1.48880e+01,    3.50496e+01
   9.25000e+03,    2.88756e+00,    1.48751e+01,    3.50527e+01
   9.26000e+03,    2.88671e+00,    1.48621e+01,    3.50558e+01
   9.27000e+03,    2.88587e+00,    1.48492e+01,    3.50589e+01
   9.28000e+03,    2.88503e+00,    1.48363e+01,    3.50620e+01
   9.29000e+03,    2.88419e+00,    1.48234e+01,    3.50651e+01
   9.30000e+03,    2.88335e+00,    1.48106e+01,    3.50682e+01
   9.31000e+03,    2.88251e+00,    1.47978e+01,    3.50713e+01
   9.32000e+03,    2.88168e+00,    1.47850e+01,    3.50744e+01
   9.33000e+03,    2.88085e+00,    1.47723e+01,    3.50775e+01
   9.34000e+03,    2.88002e+00,    1.47595e+01,    3.50806e+01
   9.35000e+03,    2.87920e+00,    1.47468e+01,    3.50837e+01
   9.36000e+03,    2.87838e+00,    1.47341e+01,    3.50868e+01
   9.37000e+03,    2.87756e+00,    1.47215e+01,    3.50898e+01
   9.38000e+03,    2.87674e+00,    1.47089e+01,    3.50929e+01
   9.39000e+03,    2.87593e+00,    1.46963e+01,    3.50960e+01
   9.40000e+03,    2.87511e+00,    1.46837e+01,    3.50990e+01
   9.41000e+03,    2.87430e+00,    1.46711e+01,    3.51021e+01
   9.42000e+03,    2.87350e+00,    1.46586e+01,    3.51051e+01
   9.43000e+03,    2.87269e+00,    1.46461e+01,    3.51082e+01
   9.44000e+03,    2.87189e+00,    1.46336e+01,    3.51112e+01
   9.45000e+03,    2.87109e+00,    1.46212e+01,    3.51143e+01
   9.46000e+03,    2.87029e+00,    1.46088e+01,    3.51173e+01
   9.47000e+03,    2.86950e+00,    1.45964e+01,    3.51203e+01
   9.48000e+03,    2.86870e+00,    1.45840e+01,    3.51234e+01
   9.49000e+03,    2.86791e+00,    1.45717e+01,    3.51264e+01
   9.50000e+03,    2.86712e+00,    1.45593e+01,    3.51294e+01
   9.51000e+03,    2.86634e+00,    1.45470e+01,    3.51324e+01
   9.52000e+03,    2.86556e+00,    1.45348e+01,    3.51354e+01
   9.53000e+03,    2.86477e+00,    1.45225e+01,    3.51384e+01
   9.54000e+03,    2.86400e+00,    1.45103e+01,    3.51415e+01
   9.55000e+03,    2.86322e+00,    1.44981e+01,    3.51445e+01
   9.56000e+03,    2.86245e+00,    1.44859e+01,    3.51474e+01
   9.57000e+03,    2.86167e+00,    1.44738e+01,    3.51504e+01
   9.58000e+03,    2.86090e+00,    1.44617e+01,    3.51534e+01
   9.59000e+03,    2.86014e+00,    1.44496e+01,    3.51564e+01
   9.60000e+03,    2.85937e+00,    1.44375e+01,    3.51594e+01
   9.61000e+03,    2.85861e+00,    1.44255e+01,    3.51624e+01
   9.62000e+03,    2.85785e+00,    1.44134e+01,    3.51653e+01
   9.63000e+03,    2.85709e+00,    1.44014e+01,    3.51683e+01
   9.64000e+03,    2.85634e+00,    1.43895e+01,    3.51713e+01
   9.65000e+03,    2.85558e+00,    1.43775e+01,    3.51742e+01
   9.66000e+03,    2.85483e+00,    1.43656e+01,    3.51772e+01
   9.67000e+03,    2.85408e+00,    1.43537e+01,    3.51801e+01
   9.68000e+03,    2.85333e+00,    1.43418e+01,    3.51831e+01
   9.69000e+03,    2.85259e+00,    1.43299e+01,    3.51860e+01
   9.70000e+03,    2.85185e+00,    1.43181e+01,    3.51890e+01
   9.71000e+03,    2.85111e+00,    1.43063e+01,    3.51919e+01
   9.72000e+03,    2.85037e+00,    1.42945e+01,    3.51949e+01
   9.73000e+03,    2.84963e+00,    1.42827e+01,    3.51978e+01
   9.74000e+03,    2.84890e+00,    1.42710e+01,    3.52007e+01
   9.75000e+03,    2.84817e+00,    1.42593e+01,    3.52036e+01
   9.76000e+03,    2.84744e+00,    1.42476e+01,    3.52066e+01
   9.77000e+03,    2.84671e+00,    1.42359e+01,    3.52095e+01
   9.78000e+03,    2.84599e+00,    1.42243e+01,    3.52124e+01
   9.79000e+03,    2.84526e+00,    1.42127e+01,    3.52153e+01
   9.80000e+03,    2.84454e+00,    1.42011e+01,    3.52182e+01
   9.81000e+03,    2.84382e+00,    1.41895e+01,    3.52211e+01
   9.82000e+03,    2.84311e+00,    1.41779e+01,    3.52240e+01
   9.83000e+03,    2.84239e+00,    1.41664e+01,    3.52269e+01
   9.84000e+03,    2.84168e+00,    1.41549e+01,    3.52298e+01
   9.85000e+03,    2.84097e+00,    1.41434e+01,    3.52327e+01
   9.86000e+03,    2.84026e+00,    1.41319e+01,    3.52355e+01
   9.87000e+03,    2.83956e+00,    1.41205e+01,    3.52384e+01
   9.88000e+03,    2.83885e+00,    1.41091e+01,    3.52413e+01
   9.89000e+03,    2.83815e+00,    1.40977e+01,    3.52442e+01
   9.90000e+03,    2.83745e+00,    1.40863e+01,    3.52470e+01
   9.91000e+03,    2.83675e+00,    1.40750e+01,    3.52499e+01
   9.92000e+03,    2.83606e+00,    1.40636e+01,    3.52528e+01
   9.93000e+03,    2.83536e+00,    1.40523e+01,    3.52556e+01
   9.94000e+03,    2.83467e+00,    1.40410e+01,    3.52585e+01
   9.95000e+03,    2.83398e+00,    1.40298e+01,    3.52613e+01
   9.96000e+03,    2.83329e+00,    1.40185e+01,    3.52642e+01
   9.97000e+03,    2.83261e+00,    1.40073e+01,    3.52670e+01
   9.98000e+03,    2.83193e+00,    1.39961e+01,    3.52699e+01
   9.99000e+03,    2.83124e+00,    1.39849e+01,    3.52727e+01
   1.00000e+04,    2.83056e+00,    1.39738e+01,    3.52755e+01
