# Statistical Thermodynamics
# Computation done on 12-Feb-2020 07:52:45
# Species CH(X)
# Standard state T =    2.98150e+02 (K) P =    1.01325e+05 (Pa)
# C_P           2.91551e+01 (J/K mol)
# H             5.94130e+05 (J/mol)
# S             1.82935e+02 (J/K mol)
# C_P/R         3.50655e+00
# H/RT          2.39669e+02
# S/R           2.20021e+01
#     T            C_P/R           H/RT            S/R
   2.00000e+02,    3.50432e+00,    3.55567e+02,    2.06025e+01
   2.10000e+02,    3.50450e+00,    3.38802e+02,    2.07735e+01
   2.20000e+02,    3.50469e+00,    3.23561e+02,    2.09365e+01
   2.30000e+02,    3.50488e+00,    3.09646e+02,    2.10923e+01
   2.40000e+02,    3.50509e+00,    2.96890e+02,    2.12415e+01
   2.50000e+02,    3.50530e+00,    2.85155e+02,    2.13846e+01
   2.60000e+02,    3.50552e+00,    2.74322e+02,    2.15221e+01
   2.70000e+02,    3.50576e+00,    2.64292e+02,    2.16544e+01
   2.80000e+02,    3.50601e+00,    2.54978e+02,    2.17819e+01
   2.90000e+02,    3.50630e+00,    2.46306e+02,    2.19049e+01
   3.00000e+02,    3.50661e+00,    2.38213e+02,    2.20238e+01
   3.10000e+02,    3.50697e+00,    2.30642e+02,    2.21388e+01
   3.20000e+02,    3.50738e+00,    2.23544e+02,    2.22501e+01
   3.30000e+02,    3.50785e+00,    2.16876e+02,    2.23580e+01
   3.40000e+02,    3.50839e+00,    2.10601e+02,    2.24628e+01
   3.50000e+02,    3.50901e+00,    2.04684e+02,    2.25645e+01
   3.60000e+02,    3.50972e+00,    1.99096e+02,    2.26633e+01
   3.70000e+02,    3.51053e+00,    1.93809e+02,    2.27595e+01
   3.80000e+02,    3.51146e+00,    1.88802e+02,    2.28531e+01
   3.90000e+02,    3.51252e+00,    1.84051e+02,    2.29444e+01
   4.00000e+02,    3.51372e+00,    1.79537e+02,    2.30333e+01
   4.10000e+02,    3.51506e+00,    1.75244e+02,    2.31201e+01
   4.20000e+02,    3.51656e+00,    1.71155e+02,    2.32048e+01
   4.30000e+02,    3.51823e+00,    1.67257e+02,    2.32876e+01
   4.40000e+02,    3.52008e+00,    1.63535e+02,    2.33685e+01
   4.50000e+02,    3.52210e+00,    1.59979e+02,    2.34476e+01
   4.60000e+02,    3.52432e+00,    1.56578e+02,    2.35250e+01
   4.70000e+02,    3.52673e+00,    1.53322e+02,    2.36009e+01
   4.80000e+02,    3.52934e+00,    1.50201e+02,    2.36751e+01
   4.90000e+02,    3.53215e+00,    1.47208e+02,    2.37479e+01
   5.00000e+02,    3.53517e+00,    1.44334e+02,    2.38193e+01
   5.10000e+02,    3.53840e+00,    1.41574e+02,    2.38894e+01
   5.20000e+02,    3.54183e+00,    1.38919e+02,    2.39581e+01
   5.30000e+02,    3.54547e+00,    1.36365e+02,    2.40256e+01
   5.40000e+02,    3.54931e+00,    1.33905e+02,    2.40919e+01
   5.50000e+02,    3.55336e+00,    1.31535e+02,    2.41571e+01
   5.60000e+02,    3.55761e+00,    1.29250e+02,    2.42211e+01
   5.70000e+02,    3.56205e+00,    1.27045e+02,    2.42842e+01
   5.80000e+02,    3.56669e+00,    1.24916e+02,    2.43461e+01
   5.90000e+02,    3.57152e+00,    1.22859e+02,    2.44072e+01
   6.00000e+02,    3.57653e+00,    1.20871e+02,    2.44672e+01
   6.10000e+02,    3.58172e+00,    1.18948e+02,    2.45264e+01
   6.20000e+02,    3.58709e+00,    1.17087e+02,    2.45847e+01
   6.30000e+02,    3.59262e+00,    1.15286e+02,    2.46421e+01
   6.40000e+02,    3.59831e+00,    1.13541e+02,    2.46987e+01
   6.50000e+02,    3.60415e+00,    1.11849e+02,    2.47546e+01
   6.60000e+02,    3.61014e+00,    1.10209e+02,    2.48096e+01
   6.70000e+02,    3.61626e+00,    1.08618e+02,    2.48640e+01
   6.80000e+02,    3.62252e+00,    1.07074e+02,    2.49176e+01
   6.90000e+02,    3.62891e+00,    1.05575e+02,    2.49705e+01
   7.00000e+02,    3.63541e+00,    1.04119e+02,    2.50228e+01
   7.10000e+02,    3.64202e+00,    1.02703e+02,    2.50744e+01
   7.20000e+02,    3.64874e+00,    1.01328e+02,    2.51254e+01
   7.30000e+02,    3.65555e+00,    9.99896e+01,    2.51758e+01
   7.40000e+02,    3.66245e+00,    9.86878e+01,    2.52255e+01
   7.50000e+02,    3.66944e+00,    9.74209e+01,    2.52747e+01
   7.60000e+02,    3.67650e+00,    9.61874e+01,    2.53234e+01
   7.70000e+02,    3.68363e+00,    9.49860e+01,    2.53715e+01
   7.80000e+02,    3.69082e+00,    9.38155e+01,    2.54191e+01
   7.90000e+02,    3.69807e+00,    9.26747e+01,    2.54661e+01
   8.00000e+02,    3.70538e+00,    9.15625e+01,    2.55127e+01
   8.10000e+02,    3.71272e+00,    9.04779e+01,    2.55588e+01
   8.20000e+02,    3.72011e+00,    8.94199e+01,    2.56044e+01
   8.30000e+02,    3.72753e+00,    8.83874e+01,    2.56495e+01
   8.40000e+02,    3.73498e+00,    8.73796e+01,    2.56942e+01
   8.50000e+02,    3.74246e+00,    8.63955e+01,    2.57384e+01
   8.60000e+02,    3.74995e+00,    8.54345e+01,    2.57823e+01
   8.70000e+02,    3.75746e+00,    8.44956e+01,    2.58257e+01
   8.80000e+02,    3.76497e+00,    8.35782e+01,    2.58686e+01
   8.90000e+02,    3.77250e+00,    8.26815e+01,    2.59112e+01
   9.00000e+02,    3.78002e+00,    8.18048e+01,    2.59534e+01
   9.10000e+02,    3.78754e+00,    8.09474e+01,    2.59952e+01
   9.20000e+02,    3.79506e+00,    8.01087e+01,    2.60367e+01
   9.30000e+02,    3.80256e+00,    7.92882e+01,    2.60777e+01
   9.40000e+02,    3.81006e+00,    7.84852e+01,    2.61184e+01
   9.50000e+02,    3.81754e+00,    7.76992e+01,    2.61588e+01
   9.60000e+02,    3.82500e+00,    7.69296e+01,    2.61988e+01
   9.70000e+02,    3.83243e+00,    7.61760e+01,    2.62385e+01
   9.80000e+02,    3.83985e+00,    7.54378e+01,    2.62778e+01
   9.90000e+02,    3.84723e+00,    7.47147e+01,    2.63169e+01
   1.00000e+03,    3.85459e+00,    7.40060e+01,    2.63556e+01
   1.01000e+03,    3.86192e+00,    7.33115e+01,    2.63940e+01
   1.02000e+03,    3.86921e+00,    7.26306e+01,    2.64320e+01
   1.03000e+03,    3.87647e+00,    7.19631e+01,    2.64698e+01
   1.04000e+03,    3.88369e+00,    7.13085e+01,    2.65073e+01
   1.05000e+03,    3.89087e+00,    7.06663e+01,    2.65445e+01
   1.06000e+03,    3.89802e+00,    7.00364e+01,    2.65814e+01
   1.07000e+03,    3.90512e+00,    6.94183e+01,    2.66181e+01
   1.08000e+03,    3.91218e+00,    6.88118e+01,    2.66544e+01
   1.09000e+03,    3.91919e+00,    6.82164e+01,    2.66905e+01
   1.10000e+03,    3.92616e+00,    6.76319e+01,    2.67263e+01
   1.11000e+03,    3.93308e+00,    6.70580e+01,    2.67619e+01
   1.12000e+03,    3.93996e+00,    6.64944e+01,    2.67972e+01
   1.13000e+03,    3.94679e+00,    6.59409e+01,    2.68323e+01
   1.14000e+03,    3.95357e+00,    6.53971e+01,    2.68671e+01
   1.15000e+03,    3.96030e+00,    6.48628e+01,    2.69016e+01
   1.16000e+03,    3.96698e+00,    6.43378e+01,    2.69359e+01
   1.17000e+03,    3.97361e+00,    6.38219e+01,    2.69700e+01
   1.18000e+03,    3.98019e+00,    6.33147e+01,    2.70039e+01
   1.19000e+03,    3.98672e+00,    6.28161e+01,    2.70375e+01
   1.20000e+03,    3.99319e+00,    6.23259e+01,    2.70709e+01
   1.21000e+03,    3.99962e+00,    6.18439e+01,    2.71040e+01
   1.22000e+03,    4.00599e+00,    6.13697e+01,    2.71370e+01
   1.23000e+03,    4.01231e+00,    6.09034e+01,    2.71697e+01
   1.24000e+03,    4.01858e+00,    6.04446e+01,    2.72022e+01
   1.25000e+03,    4.02480e+00,    5.99932e+01,    2.72345e+01
   1.26000e+03,    4.03096e+00,    5.95491e+01,    2.72666e+01
   1.27000e+03,    4.03707e+00,    5.91120e+01,    2.72985e+01
   1.28000e+03,    4.04313e+00,    5.86817e+01,    2.73302e+01
   1.29000e+03,    4.04914e+00,    5.82582e+01,    2.73617e+01
   1.30000e+03,    4.05509e+00,    5.78412e+01,    2.73930e+01
   1.31000e+03,    4.06099e+00,    5.74306e+01,    2.74241e+01
   1.32000e+03,    4.06684e+00,    5.70263e+01,    2.74550e+01
   1.33000e+03,    4.07264e+00,    5.66282e+01,    2.74857e+01
   1.34000e+03,    4.07839e+00,    5.62360e+01,    2.75162e+01
   1.35000e+03,    4.08409e+00,    5.58497e+01,    2.75466e+01
   1.36000e+03,    4.08973e+00,    5.54691e+01,    2.75767e+01
   1.37000e+03,    4.09533e+00,    5.50940e+01,    2.76067e+01
   1.38000e+03,    4.10088e+00,    5.47245e+01,    2.76365e+01
   1.39000e+03,    4.10637e+00,    5.43603e+01,    2.76661e+01
   1.40000e+03,    4.11182e+00,    5.40014e+01,    2.76956e+01
   1.41000e+03,    4.11721e+00,    5.36476e+01,    2.77249e+01
   1.42000e+03,    4.12256e+00,    5.32988e+01,    2.77540e+01
   1.43000e+03,    4.12786e+00,    5.29549e+01,    2.77829e+01
   1.44000e+03,    4.13311e+00,    5.26159e+01,    2.78117e+01
   1.45000e+03,    4.13832e+00,    5.22815e+01,    2.78403e+01
   1.46000e+03,    4.14348e+00,    5.19518e+01,    2.78688e+01
   1.47000e+03,    4.14859e+00,    5.16266e+01,    2.78971e+01
   1.48000e+03,    4.15365e+00,    5.13058e+01,    2.79253e+01
   1.49000e+03,    4.15867e+00,    5.09894e+01,    2.79532e+01
   1.50000e+03,    4.16364e+00,    5.06772e+01,    2.79811e+01
   1.51000e+03,    4.16857e+00,    5.03692e+01,    2.80088e+01
   1.52000e+03,    4.17346e+00,    5.00652e+01,    2.80363e+01
   1.53000e+03,    4.17830e+00,    4.97653e+01,    2.80637e+01
   1.54000e+03,    4.18309e+00,    4.94693e+01,    2.80909e+01
   1.55000e+03,    4.18785e+00,    4.91771e+01,    2.81180e+01
   1.56000e+03,    4.19256e+00,    4.88888e+01,    2.81449e+01
   1.57000e+03,    4.19723e+00,    4.86041e+01,    2.81717e+01
   1.58000e+03,    4.20186e+00,    4.83230e+01,    2.81984e+01
   1.59000e+03,    4.20644e+00,    4.80456e+01,    2.82249e+01
   1.60000e+03,    4.21099e+00,    4.77716e+01,    2.82513e+01
   1.61000e+03,    4.21550e+00,    4.75010e+01,    2.82776e+01
   1.62000e+03,    4.21997e+00,    4.72339e+01,    2.83037e+01
   1.63000e+03,    4.22439e+00,    4.69700e+01,    2.83297e+01
   1.64000e+03,    4.22878e+00,    4.67093e+01,    2.83555e+01
   1.65000e+03,    4.23314e+00,    4.64519e+01,    2.83812e+01
   1.66000e+03,    4.23745e+00,    4.61976e+01,    2.84068e+01
   1.67000e+03,    4.24173e+00,    4.59463e+01,    2.84323e+01
   1.68000e+03,    4.24597e+00,    4.56981e+01,    2.84576e+01
   1.69000e+03,    4.25017e+00,    4.54528e+01,    2.84828e+01
   1.70000e+03,    4.25434e+00,    4.52105e+01,    2.85079e+01
   1.71000e+03,    4.25847e+00,    4.49710e+01,    2.85329e+01
   1.72000e+03,    4.26257e+00,    4.47343e+01,    2.85577e+01
   1.73000e+03,    4.26664e+00,    4.45004e+01,    2.85825e+01
   1.74000e+03,    4.27067e+00,    4.42692e+01,    2.86071e+01
   1.75000e+03,    4.27466e+00,    4.40406e+01,    2.86316e+01
   1.76000e+03,    4.27863e+00,    4.38147e+01,    2.86559e+01
   1.77000e+03,    4.28256e+00,    4.35913e+01,    2.86802e+01
   1.78000e+03,    4.28646e+00,    4.33705e+01,    2.87043e+01
   1.79000e+03,    4.29033e+00,    4.31522e+01,    2.87283e+01
   1.80000e+03,    4.29417e+00,    4.29363e+01,    2.87522e+01
   1.81000e+03,    4.29798e+00,    4.27228e+01,    2.87760e+01
   1.82000e+03,    4.30175e+00,    4.25117e+01,    2.87997e+01
   1.83000e+03,    4.30550e+00,    4.23029e+01,    2.88233e+01
   1.84000e+03,    4.30922e+00,    4.20964e+01,    2.88468e+01
   1.85000e+03,    4.31291e+00,    4.18921e+01,    2.88702e+01
   1.86000e+03,    4.31657e+00,    4.16901e+01,    2.88934e+01
   1.87000e+03,    4.32020e+00,    4.14903e+01,    2.89166e+01
   1.88000e+03,    4.32381e+00,    4.12926e+01,    2.89396e+01
   1.89000e+03,    4.32738e+00,    4.10970e+01,    2.89626e+01
   1.90000e+03,    4.33093e+00,    4.09035e+01,    2.89854e+01
   1.91000e+03,    4.33446e+00,    4.07120e+01,    2.90082e+01
   1.92000e+03,    4.33796e+00,    4.05225e+01,    2.90308e+01
   1.93000e+03,    4.34143e+00,    4.03350e+01,    2.90533e+01
   1.94000e+03,    4.34488e+00,    4.01495e+01,    2.90758e+01
   1.95000e+03,    4.34830e+00,    3.99659e+01,    2.90981e+01
   1.96000e+03,    4.35170e+00,    3.97842e+01,    2.91204e+01
   1.97000e+03,    4.35508e+00,    3.96044e+01,    2.91425e+01
   1.98000e+03,    4.35843e+00,    3.94263e+01,    2.91646e+01
   1.99000e+03,    4.36175e+00,    3.92501e+01,    2.91866e+01
   2.00000e+03,    4.36506e+00,    3.90757e+01,    2.92084e+01
   2.01000e+03,    4.36834e+00,    3.89030e+01,    2.92302e+01
   2.02000e+03,    4.37160e+00,    3.87321e+01,    2.92519e+01
   2.03000e+03,    4.37484e+00,    3.85628e+01,    2.92735e+01
   2.04000e+03,    4.37805e+00,    3.83952e+01,    2.92950e+01
   2.05000e+03,    4.38125e+00,    3.82293e+01,    2.93164e+01
   2.06000e+03,    4.38442e+00,    3.80650e+01,    2.93378e+01
   2.07000e+03,    4.38758e+00,    3.79023e+01,    2.93590e+01
   2.08000e+03,    4.39071e+00,    3.77412e+01,    2.93801e+01
   2.09000e+03,    4.39382e+00,    3.75816e+01,    2.94012e+01
   2.10000e+03,    4.39692e+00,    3.74236e+01,    2.94222e+01
   2.11000e+03,    4.39999e+00,    3.72671e+01,    2.94431e+01
   2.12000e+03,    4.40305e+00,    3.71120e+01,    2.94639e+01
   2.13000e+03,    4.40609e+00,    3.69585e+01,    2.94846e+01
   2.14000e+03,    4.40911e+00,    3.68064e+01,    2.95053e+01
   2.15000e+03,    4.41211e+00,    3.66557e+01,    2.95258e+01
   2.16000e+03,    4.41509e+00,    3.65064e+01,    2.95463e+01
   2.17000e+03,    4.41806e+00,    3.63585e+01,    2.95667e+01
   2.18000e+03,    4.42100e+00,    3.62120e+01,    2.95870e+01
   2.19000e+03,    4.42394e+00,    3.60669e+01,    2.96073e+01
   2.20000e+03,    4.42685e+00,    3.59230e+01,    2.96274e+01
   2.21000e+03,    4.42975e+00,    3.57805e+01,    2.96475e+01
   2.22000e+03,    4.43264e+00,    3.56393e+01,    2.96675e+01
   2.23000e+03,    4.43550e+00,    3.54994e+01,    2.96875e+01
   2.24000e+03,    4.43836e+00,    3.53607e+01,    2.97073e+01
   2.25000e+03,    4.44119e+00,    3.52233e+01,    2.97271e+01
   2.26000e+03,    4.44402e+00,    3.50871e+01,    2.97468e+01
   2.27000e+03,    4.44683e+00,    3.49521e+01,    2.97664e+01
   2.28000e+03,    4.44962e+00,    3.48183e+01,    2.97860e+01
   2.29000e+03,    4.45240e+00,    3.46857e+01,    2.98054e+01
   2.30000e+03,    4.45516e+00,    3.45543e+01,    2.98248e+01
   2.31000e+03,    4.45792e+00,    3.44240e+01,    2.98442e+01
   2.32000e+03,    4.46066e+00,    3.42948e+01,    2.98634e+01
   2.33000e+03,    4.46338e+00,    3.41668e+01,    2.98826e+01
   2.34000e+03,    4.46610e+00,    3.40398e+01,    2.99018e+01
   2.35000e+03,    4.46880e+00,    3.39140e+01,    2.99208e+01
   2.36000e+03,    4.47148e+00,    3.37892e+01,    2.99398e+01
   2.37000e+03,    4.47416e+00,    3.36655e+01,    2.99587e+01
   2.38000e+03,    4.47683e+00,    3.35429e+01,    2.99775e+01
   2.39000e+03,    4.47948e+00,    3.34213e+01,    2.99963e+01
   2.40000e+03,    4.48212e+00,    3.33007e+01,    3.00150e+01
   2.41000e+03,    4.48475e+00,    3.31811e+01,    3.00337e+01
   2.42000e+03,    4.48737e+00,    3.30626e+01,    3.00523e+01
   2.43000e+03,    4.48998e+00,    3.29450e+01,    3.00708e+01
   2.44000e+03,    4.49257e+00,    3.28284e+01,    3.00892e+01
   2.45000e+03,    4.49516e+00,    3.27127e+01,    3.01076e+01
   2.46000e+03,    4.49774e+00,    3.25980e+01,    3.01259e+01
   2.47000e+03,    4.50031e+00,    3.24842e+01,    3.01442e+01
   2.48000e+03,    4.50286e+00,    3.23714e+01,    3.01623e+01
   2.49000e+03,    4.50541e+00,    3.22595e+01,    3.01805e+01
   2.50000e+03,    4.50795e+00,    3.21485e+01,    3.01985e+01
   2.51000e+03,    4.51048e+00,    3.20384e+01,    3.02165e+01
   2.52000e+03,    4.51300e+00,    3.19291e+01,    3.02345e+01
   2.53000e+03,    4.51551e+00,    3.18208e+01,    3.02523e+01
   2.54000e+03,    4.51802e+00,    3.17133e+01,    3.02702e+01
   2.55000e+03,    4.52051e+00,    3.16066e+01,    3.02879e+01
   2.56000e+03,    4.52300e+00,    3.15008e+01,    3.03056e+01
   2.57000e+03,    4.52548e+00,    3.13959e+01,    3.03233e+01
   2.58000e+03,    4.52795e+00,    3.12917e+01,    3.03408e+01
   2.59000e+03,    4.53041e+00,    3.11884e+01,    3.03584e+01
   2.60000e+03,    4.53286e+00,    3.10859e+01,    3.03758e+01
   2.61000e+03,    4.53531e+00,    3.09841e+01,    3.03932e+01
   2.62000e+03,    4.53775e+00,    3.08832e+01,    3.04106e+01
   2.63000e+03,    4.54019e+00,    3.07830e+01,    3.04279e+01
   2.64000e+03,    4.54261e+00,    3.06836e+01,    3.04451e+01
   2.65000e+03,    4.54503e+00,    3.05850e+01,    3.04623e+01
   2.66000e+03,    4.54745e+00,    3.04871e+01,    3.04794e+01
   2.67000e+03,    4.54985e+00,    3.03899e+01,    3.04965e+01
   2.68000e+03,    4.55226e+00,    3.02935e+01,    3.05135e+01
   2.69000e+03,    4.55465e+00,    3.01978e+01,    3.05304e+01
   2.70000e+03,    4.55704e+00,    3.01029e+01,    3.05474e+01
   2.71000e+03,    4.55942e+00,    3.00086e+01,    3.05642e+01
   2.72000e+03,    4.56180e+00,    2.99150e+01,    3.05810e+01
   2.73000e+03,    4.56417e+00,    2.98222e+01,    3.05977e+01
   2.74000e+03,    4.56654e+00,    2.97300e+01,    3.06144e+01
   2.75000e+03,    4.56890e+00,    2.96385e+01,    3.06311e+01
   2.76000e+03,    4.57125e+00,    2.95477e+01,    3.06477e+01
   2.77000e+03,    4.57360e+00,    2.94575e+01,    3.06642e+01
   2.78000e+03,    4.57595e+00,    2.93680e+01,    3.06807e+01
   2.79000e+03,    4.57829e+00,    2.92792e+01,    3.06971e+01
   2.80000e+03,    4.58062e+00,    2.91909e+01,    3.07135e+01
   2.81000e+03,    4.58296e+00,    2.91034e+01,    3.07298e+01
   2.82000e+03,    4.58528e+00,    2.90164e+01,    3.07461e+01
   2.83000e+03,    4.58761e+00,    2.89301e+01,    3.07624e+01
   2.84000e+03,    4.58992e+00,    2.88444e+01,    3.07785e+01
   2.85000e+03,    4.59224e+00,    2.87593e+01,    3.07947e+01
   2.86000e+03,    4.59455e+00,    2.86748e+01,    3.08108e+01
   2.87000e+03,    4.59685e+00,    2.85909e+01,    3.08268e+01
   2.88000e+03,    4.59916e+00,    2.85076e+01,    3.08428e+01
   2.89000e+03,    4.60145e+00,    2.84249e+01,    3.08588e+01
   2.90000e+03,    4.60375e+00,    2.83427e+01,    3.08747e+01
   2.91000e+03,    4.60604e+00,    2.82611e+01,    3.08905e+01
   2.92000e+03,    4.60833e+00,    2.81801e+01,    3.09063e+01
   2.93000e+03,    4.61061e+00,    2.80997e+01,    3.09221e+01
   2.94000e+03,    4.61289e+00,    2.80198e+01,    3.09378e+01
   2.95000e+03,    4.61517e+00,    2.79404e+01,    3.09534e+01
   2.96000e+03,    4.61745e+00,    2.78617e+01,    3.09691e+01
   2.97000e+03,    4.61972e+00,    2.77834e+01,    3.09846e+01
   2.98000e+03,    4.62199e+00,    2.77057e+01,    3.10002e+01
   2.99000e+03,    4.62425e+00,    2.76285e+01,    3.10157e+01
   3.00000e+03,    4.62652e+00,    2.75518e+01,    3.10311e+01
   3.01000e+03,    4.62878e+00,    2.74756e+01,    3.10465e+01
   3.02000e+03,    4.63103e+00,    2.74000e+01,    3.10619e+01
   3.03000e+03,    4.63329e+00,    2.73248e+01,    3.10772e+01
   3.04000e+03,    4.63554e+00,    2.72502e+01,    3.10924e+01
   3.05000e+03,    4.63779e+00,    2.71761e+01,    3.11077e+01
   3.06000e+03,    4.64004e+00,    2.71024e+01,    3.11229e+01
   3.07000e+03,    4.64228e+00,    2.70292e+01,    3.11380e+01
   3.08000e+03,    4.64452e+00,    2.69566e+01,    3.11531e+01
   3.09000e+03,    4.64676e+00,    2.68844e+01,    3.11682e+01
   3.10000e+03,    4.64900e+00,    2.68126e+01,    3.11832e+01
   3.11000e+03,    4.65124e+00,    2.67414e+01,    3.11982e+01
   3.12000e+03,    4.65347e+00,    2.66706e+01,    3.12131e+01
   3.13000e+03,    4.65570e+00,    2.66002e+01,    3.12280e+01
   3.14000e+03,    4.65793e+00,    2.65303e+01,    3.12428e+01
   3.15000e+03,    4.66016e+00,    2.64609e+01,    3.12577e+01
   3.16000e+03,    4.66238e+00,    2.63919e+01,    3.12724e+01
   3.17000e+03,    4.66460e+00,    2.63234e+01,    3.12872e+01
   3.18000e+03,    4.66683e+00,    2.62553e+01,    3.13019e+01
   3.19000e+03,    4.66904e+00,    2.61876e+01,    3.13165e+01
   3.20000e+03,    4.67126e+00,    2.61204e+01,    3.13311e+01
   3.21000e+03,    4.67348e+00,    2.60535e+01,    3.13457e+01
   3.22000e+03,    4.67569e+00,    2.59872e+01,    3.13603e+01
   3.23000e+03,    4.67790e+00,    2.59212e+01,    3.13748e+01
   3.24000e+03,    4.68011e+00,    2.58556e+01,    3.13892e+01
   3.25000e+03,    4.68232e+00,    2.57905e+01,    3.14036e+01
   3.26000e+03,    4.68452e+00,    2.57257e+01,    3.14180e+01
   3.27000e+03,    4.68673e+00,    2.56614e+01,    3.14324e+01
   3.28000e+03,    4.68893e+00,    2.55974e+01,    3.14467e+01
   3.29000e+03,    4.69113e+00,    2.55339e+01,    3.14610e+01
   3.30000e+03,    4.69333e+00,    2.54707e+01,    3.14752e+01
   3.31000e+03,    4.69552e+00,    2.54080e+01,    3.14894e+01
   3.32000e+03,    4.69772e+00,    2.53456e+01,    3.15036e+01
   3.33000e+03,    4.69991e+00,    2.52836e+01,    3.15177e+01
   3.34000e+03,    4.70210e+00,    2.52219e+01,    3.15318e+01
   3.35000e+03,    4.70429e+00,    2.51607e+01,    3.15459e+01
   3.36000e+03,    4.70648e+00,    2.50998e+01,    3.15599e+01
   3.37000e+03,    4.70866e+00,    2.50393e+01,    3.15739e+01
   3.38000e+03,    4.71085e+00,    2.49792e+01,    3.15878e+01
   3.39000e+03,    4.71303e+00,    2.49194e+01,    3.16018e+01
   3.40000e+03,    4.71521e+00,    2.48599e+01,    3.16156e+01
   3.41000e+03,    4.71738e+00,    2.48009e+01,    3.16295e+01
   3.42000e+03,    4.71956e+00,    2.47422e+01,    3.16433e+01
   3.43000e+03,    4.72173e+00,    2.46838e+01,    3.16571e+01
   3.44000e+03,    4.72390e+00,    2.46258e+01,    3.16708e+01
   3.45000e+03,    4.72607e+00,    2.45681e+01,    3.16846e+01
   3.46000e+03,    4.72824e+00,    2.45107e+01,    3.16982e+01
   3.47000e+03,    4.73041e+00,    2.44537e+01,    3.17119e+01
   3.48000e+03,    4.73257e+00,    2.43970e+01,    3.17255e+01
   3.49000e+03,    4.73473e+00,    2.43407e+01,    3.17391e+01
   3.50000e+03,    4.73689e+00,    2.42847e+01,    3.17526e+01
   3.51000e+03,    4.73905e+00,    2.42290e+01,    3.17662e+01
   3.52000e+03,    4.74120e+00,    2.41736e+01,    3.17796e+01
   3.53000e+03,    4.74335e+00,    2.41186e+01,    3.17931e+01
   3.54000e+03,    4.74550e+00,    2.40639e+01,    3.18065e+01
   3.55000e+03,    4.74765e+00,    2.40094e+01,    3.18199e+01
   3.56000e+03,    4.74979e+00,    2.39553e+01,    3.18333e+01
   3.57000e+03,    4.75193e+00,    2.39016e+01,    3.18466e+01
   3.58000e+03,    4.75407e+00,    2.38481e+01,    3.18599e+01
   3.59000e+03,    4.75621e+00,    2.37949e+01,    3.18732e+01
   3.60000e+03,    4.75834e+00,    2.37420e+01,    3.18864e+01
   3.61000e+03,    4.76047e+00,    2.36894e+01,    3.18996e+01
   3.62000e+03,    4.76260e+00,    2.36371e+01,    3.19128e+01
   3.63000e+03,    4.76473e+00,    2.35851e+01,    3.19259e+01
   3.64000e+03,    4.76685e+00,    2.35334e+01,    3.19390e+01
   3.65000e+03,    4.76897e+00,    2.34820e+01,    3.19521e+01
   3.66000e+03,    4.77109e+00,    2.34309e+01,    3.19651e+01
   3.67000e+03,    4.77320e+00,    2.33801e+01,    3.19782e+01
   3.68000e+03,    4.77531e+00,    2.33295e+01,    3.19912e+01
   3.69000e+03,    4.77742e+00,    2.32792e+01,    3.20041e+01
   3.70000e+03,    4.77952e+00,    2.32292e+01,    3.20171e+01
   3.71000e+03,    4.78162e+00,    2.31795e+01,    3.20300e+01
   3.72000e+03,    4.78372e+00,    2.31300e+01,    3.20428e+01
   3.73000e+03,    4.78581e+00,    2.30808e+01,    3.20557e+01
   3.74000e+03,    4.78790e+00,    2.30319e+01,    3.20685e+01
   3.75000e+03,    4.78998e+00,    2.29833e+01,    3.20813e+01
   3.76000e+03,    4.79207e+00,    2.29349e+01,    3.20940e+01
   3.77000e+03,    4.79414e+00,    2.28868e+01,    3.21068e+01
   3.78000e+03,    4.79622e+00,    2.28389e+01,    3.21195e+01
   3.79000e+03,    4.79829e+00,    2.27913e+01,    3.21321e+01
   3.80000e+03,    4.80035e+00,    2.27440e+01,    3.21448e+01
   3.81000e+03,    4.80242e+00,    2.26969e+01,    3.21574e+01
   3.82000e+03,    4.80447e+00,    2.26500e+01,    3.21700e+01
   3.83000e+03,    4.80653e+00,    2.26034e+01,    3.21826e+01
   3.84000e+03,    4.80857e+00,    2.25571e+01,    3.21951e+01
   3.85000e+03,    4.81062e+00,    2.25110e+01,    3.22076e+01
   3.86000e+03,    4.81266e+00,    2.24651e+01,    3.22201e+01
   3.87000e+03,    4.81469e+00,    2.24195e+01,    3.22325e+01
   3.88000e+03,    4.81672e+00,    2.23742e+01,    3.22450e+01
   3.89000e+03,    4.81875e+00,    2.23290e+01,    3.22574e+01
   3.90000e+03,    4.82077e+00,    2.22841e+01,    3.22697e+01
   3.91000e+03,    4.82278e+00,    2.22395e+01,    3.22821e+01
   3.92000e+03,    4.82479e+00,    2.21951e+01,    3.22944e+01
   3.93000e+03,    4.82680e+00,    2.21509e+01,    3.23067e+01
   3.94000e+03,    4.82879e+00,    2.21069e+01,    3.23190e+01
   3.95000e+03,    4.83079e+00,    2.20631e+01,    3.23312e+01
   3.96000e+03,    4.83278e+00,    2.20196e+01,    3.23434e+01
   3.97000e+03,    4.83476e+00,    2.19763e+01,    3.23556e+01
   3.98000e+03,    4.83673e+00,    2.19333e+01,    3.23678e+01
   3.99000e+03,    4.83870e+00,    2.18904e+01,    3.23799e+01
   4.00000e+03,    4.84067e+00,    2.18478e+01,    3.23920e+01
   4.01000e+03,    4.84263e+00,    2.18054e+01,    3.24041e+01
   4.02000e+03,    4.84458e+00,    2.17632e+01,    3.24162e+01
   4.03000e+03,    4.84653e+00,    2.17212e+01,    3.24282e+01
   4.04000e+03,    4.84846e+00,    2.16795e+01,    3.24403e+01
   4.05000e+03,    4.85040e+00,    2.16379e+01,    3.24522e+01
   4.06000e+03,    4.85232e+00,    2.15966e+01,    3.24642e+01
   4.07000e+03,    4.85424e+00,    2.15554e+01,    3.24761e+01
   4.08000e+03,    4.85616e+00,    2.15145e+01,    3.24881e+01
   4.09000e+03,    4.85806e+00,    2.14738e+01,    3.25000e+01
   4.10000e+03,    4.85996e+00,    2.14332e+01,    3.25118e+01
   4.11000e+03,    4.86185e+00,    2.13929e+01,    3.25237e+01
   4.12000e+03,    4.86374e+00,    2.13528e+01,    3.25355e+01
   4.13000e+03,    4.86562e+00,    2.13129e+01,    3.25473e+01
   4.14000e+03,    4.86749e+00,    2.12731e+01,    3.25590e+01
   4.15000e+03,    4.86935e+00,    2.12336e+01,    3.25708e+01
   4.16000e+03,    4.87120e+00,    2.11943e+01,    3.25825e+01
   4.17000e+03,    4.87305e+00,    2.11551e+01,    3.25942e+01
   4.18000e+03,    4.87489e+00,    2.11162e+01,    3.26059e+01
   4.19000e+03,    4.87672e+00,    2.10774e+01,    3.26175e+01
   4.20000e+03,    4.87855e+00,    2.10389e+01,    3.26292e+01
   4.21000e+03,    4.88036e+00,    2.10005e+01,    3.26408e+01
   4.22000e+03,    4.88217e+00,    2.09623e+01,    3.26523e+01
   4.23000e+03,    4.88397e+00,    2.09243e+01,    3.26639e+01
   4.24000e+03,    4.88576e+00,    2.08864e+01,    3.26754e+01
   4.25000e+03,    4.88754e+00,    2.08488e+01,    3.26869e+01
   4.26000e+03,    4.88931e+00,    2.08113e+01,    3.26984e+01
   4.27000e+03,    4.89107e+00,    2.07740e+01,    3.27099e+01
   4.28000e+03,    4.89283e+00,    2.07369e+01,    3.27213e+01
   4.29000e+03,    4.89457e+00,    2.07000e+01,    3.27328e+01
   4.30000e+03,    4.89631e+00,    2.06632e+01,    3.27442e+01
   4.31000e+03,    4.89804e+00,    2.06267e+01,    3.27555e+01
   4.32000e+03,    4.89976e+00,    2.05903e+01,    3.27669e+01
   4.33000e+03,    4.90147e+00,    2.05540e+01,    3.27782e+01
   4.34000e+03,    4.90317e+00,    2.05180e+01,    3.27895e+01
   4.35000e+03,    4.90485e+00,    2.04821e+01,    3.28008e+01
   4.36000e+03,    4.90653e+00,    2.04463e+01,    3.28121e+01
   4.37000e+03,    4.90820e+00,    2.04108e+01,    3.28233e+01
   4.38000e+03,    4.90986e+00,    2.03754e+01,    3.28345e+01
   4.39000e+03,    4.91151e+00,    2.03402e+01,    3.28457e+01
   4.40000e+03,    4.91315e+00,    2.03051e+01,    3.28569e+01
   4.41000e+03,    4.91478e+00,    2.02702e+01,    3.28681e+01
   4.42000e+03,    4.91640e+00,    2.02355e+01,    3.28792e+01
   4.43000e+03,    4.91801e+00,    2.02009e+01,    3.28903e+01
   4.44000e+03,    4.91961e+00,    2.01665e+01,    3.29014e+01
   4.45000e+03,    4.92120e+00,    2.01322e+01,    3.29125e+01
   4.46000e+03,    4.92277e+00,    2.00981e+01,    3.29235e+01
   4.47000e+03,    4.92434e+00,    2.00641e+01,    3.29346e+01
   4.48000e+03,    4.92589e+00,    2.00304e+01,    3.29456e+01
   4.49000e+03,    4.92744e+00,    1.99967e+01,    3.29565e+01
   4.50000e+03,    4.92897e+00,    1.99632e+01,    3.29675e+01
   4.51000e+03,    4.93049e+00,    1.99299e+01,    3.29785e+01
   4.52000e+03,    4.93200e+00,    1.98967e+01,    3.29894e+01
   4.53000e+03,    4.93350e+00,    1.98637e+01,    3.30003e+01
   4.54000e+03,    4.93498e+00,    1.98308e+01,    3.30112e+01
   4.55000e+03,    4.93646e+00,    1.97981e+01,    3.30220e+01
   4.56000e+03,    4.93792e+00,    1.97655e+01,    3.30329e+01
   4.57000e+03,    4.93937e+00,    1.97330e+01,    3.30437e+01
   4.58000e+03,    4.94081e+00,    1.97007e+01,    3.30545e+01
   4.59000e+03,    4.94224e+00,    1.96686e+01,    3.30652e+01
   4.60000e+03,    4.94365e+00,    1.96366e+01,    3.30760e+01
   4.61000e+03,    4.94506e+00,    1.96047e+01,    3.30867e+01
   4.62000e+03,    4.94645e+00,    1.95730e+01,    3.30975e+01
   4.63000e+03,    4.94782e+00,    1.95414e+01,    3.31082e+01
   4.64000e+03,    4.94919e+00,    1.95099e+01,    3.31188e+01
   4.65000e+03,    4.95054e+00,    1.94786e+01,    3.31295e+01
   4.66000e+03,    4.95188e+00,    1.94474e+01,    3.31401e+01
   4.67000e+03,    4.95321e+00,    1.94164e+01,    3.31507e+01
   4.68000e+03,    4.95452e+00,    1.93855e+01,    3.31613e+01
   4.69000e+03,    4.95582e+00,    1.93547e+01,    3.31719e+01
   4.70000e+03,    4.95711e+00,    1.93241e+01,    3.31825e+01
   4.71000e+03,    4.95839e+00,    1.92936e+01,    3.31930e+01
   4.72000e+03,    4.95965e+00,    1.92632e+01,    3.32035e+01
   4.73000e+03,    4.96090e+00,    1.92330e+01,    3.32140e+01
   4.74000e+03,    4.96213e+00,    1.92029e+01,    3.32245e+01
   4.75000e+03,    4.96336e+00,    1.91729e+01,    3.32350e+01
   4.76000e+03,    4.96457e+00,    1.91430e+01,    3.32454e+01
   4.77000e+03,    4.96576e+00,    1.91133e+01,    3.32558e+01
   4.78000e+03,    4.96694e+00,    1.90837e+01,    3.32662e+01
   4.79000e+03,    4.96811e+00,    1.90543e+01,    3.32766e+01
   4.80000e+03,    4.96926e+00,    1.90249e+01,    3.32870e+01
   4.81000e+03,    4.97040e+00,    1.89957e+01,    3.32973e+01
   4.82000e+03,    4.97153e+00,    1.89666e+01,    3.33076e+01
   4.83000e+03,    4.97264e+00,    1.89376e+01,    3.33179e+01
   4.84000e+03,    4.97374e+00,    1.89088e+01,    3.33282e+01
   4.85000e+03,    4.97482e+00,    1.88800e+01,    3.33385e+01
   4.86000e+03,    4.97589e+00,    1.88514e+01,    3.33487e+01
   4.87000e+03,    4.97694e+00,    1.88229e+01,    3.33590e+01
   4.88000e+03,    4.97798e+00,    1.87946e+01,    3.33692e+01
   4.89000e+03,    4.97901e+00,    1.87663e+01,    3.33794e+01
   4.90000e+03,    4.98002e+00,    1.87382e+01,    3.33895e+01
   4.91000e+03,    4.98101e+00,    1.87102e+01,    3.33997e+01
   4.92000e+03,    4.98200e+00,    1.86822e+01,    3.34098e+01
   4.93000e+03,    4.98296e+00,    1.86545e+01,    3.34199e+01
   4.94000e+03,    4.98392e+00,    1.86268e+01,    3.34300e+01
   4.95000e+03,    4.98485e+00,    1.85992e+01,    3.34401e+01
   4.96000e+03,    4.98578e+00,    1.85718e+01,    3.34502e+01
   4.97000e+03,    4.98668e+00,    1.85444e+01,    3.34602e+01
   4.98000e+03,    4.98757e+00,    1.85172e+01,    3.34703e+01
   4.99000e+03,    4.98845e+00,    1.84901e+01,    3.34803e+01
   5.00000e+03,    4.98931e+00,    1.84631e+01,    3.34902e+01
   5.01000e+03,    4.99016e+00,    1.84362e+01,    3.35002e+01
   5.02000e+03,    4.99099e+00,    1.84094e+01,    3.35102e+01
   5.03000e+03,    4.99181e+00,    1.83827e+01,    3.35201e+01
   5.04000e+03,    4.99261e+00,    1.83562e+01,    3.35300e+01
   5.05000e+03,    4.99340e+00,    1.83297e+01,    3.35399e+01
   5.06000e+03,    4.99417e+00,    1.83034e+01,    3.35498e+01
   5.07000e+03,    4.99492e+00,    1.82771e+01,    3.35597e+01
   5.08000e+03,    4.99566e+00,    1.82510e+01,    3.35695e+01
   5.09000e+03,    4.99638e+00,    1.82249e+01,    3.35793e+01
   5.10000e+03,    4.99709e+00,    1.81990e+01,    3.35891e+01
   5.11000e+03,    4.99778e+00,    1.81732e+01,    3.35989e+01
   5.12000e+03,    4.99846e+00,    1.81474e+01,    3.36087e+01
   5.13000e+03,    4.99912e+00,    1.81218e+01,    3.36184e+01
   5.14000e+03,    4.99976e+00,    1.80963e+01,    3.36282e+01
   5.15000e+03,    5.00039e+00,    1.80708e+01,    3.36379e+01
   5.16000e+03,    5.00100e+00,    1.80455e+01,    3.36476e+01
   5.17000e+03,    5.00160e+00,    1.80203e+01,    3.36573e+01
   5.18000e+03,    5.00218e+00,    1.79951e+01,    3.36669e+01
   5.19000e+03,    5.00275e+00,    1.79701e+01,    3.36766e+01
   5.20000e+03,    5.00330e+00,    1.79452e+01,    3.36862e+01
   5.21000e+03,    5.00383e+00,    1.79203e+01,    3.36958e+01
   5.22000e+03,    5.00435e+00,    1.78956e+01,    3.37054e+01
   5.23000e+03,    5.00485e+00,    1.78709e+01,    3.37150e+01
   5.24000e+03,    5.00533e+00,    1.78464e+01,    3.37246e+01
   5.25000e+03,    5.00580e+00,    1.78219e+01,    3.37341e+01
   5.26000e+03,    5.00625e+00,    1.77976e+01,    3.37436e+01
   5.27000e+03,    5.00669e+00,    1.77733e+01,    3.37531e+01
   5.28000e+03,    5.00711e+00,    1.77491e+01,    3.37626e+01
   5.29000e+03,    5.00751e+00,    1.77250e+01,    3.37721e+01
   5.30000e+03,    5.00790e+00,    1.77010e+01,    3.37816e+01
   5.31000e+03,    5.00827e+00,    1.76771e+01,    3.37910e+01
   5.32000e+03,    5.00862e+00,    1.76533e+01,    3.38004e+01
   5.33000e+03,    5.00896e+00,    1.76296e+01,    3.38098e+01
   5.34000e+03,    5.00928e+00,    1.76060e+01,    3.38192e+01
   5.35000e+03,    5.00959e+00,    1.75824e+01,    3.38286e+01
   5.36000e+03,    5.00988e+00,    1.75590e+01,    3.38380e+01
   5.37000e+03,    5.01015e+00,    1.75356e+01,    3.38473e+01
   5.38000e+03,    5.01040e+00,    1.75123e+01,    3.38566e+01
   5.39000e+03,    5.01064e+00,    1.74891e+01,    3.38659e+01
   5.40000e+03,    5.01087e+00,    1.74660e+01,    3.38752e+01
   5.41000e+03,    5.01107e+00,    1.74430e+01,    3.38845e+01
   5.42000e+03,    5.01126e+00,    1.74200e+01,    3.38937e+01
   5.43000e+03,    5.01144e+00,    1.73972e+01,    3.39030e+01
   5.44000e+03,    5.01159e+00,    1.73744e+01,    3.39122e+01
   5.45000e+03,    5.01173e+00,    1.73517e+01,    3.39214e+01
   5.46000e+03,    5.01186e+00,    1.73291e+01,    3.39306e+01
   5.47000e+03,    5.01196e+00,    1.73066e+01,    3.39398e+01
   5.48000e+03,    5.01206e+00,    1.72842e+01,    3.39489e+01
   5.49000e+03,    5.01213e+00,    1.72618e+01,    3.39581e+01
   5.50000e+03,    5.01219e+00,    1.72396e+01,    3.39672e+01
   5.51000e+03,    5.01223e+00,    1.72174e+01,    3.39763e+01
   5.52000e+03,    5.01225e+00,    1.71953e+01,    3.39854e+01
   5.53000e+03,    5.01226e+00,    1.71732e+01,    3.39944e+01
   5.54000e+03,    5.01225e+00,    1.71513e+01,    3.40035e+01
   5.55000e+03,    5.01223e+00,    1.71294e+01,    3.40125e+01
   5.56000e+03,    5.01219e+00,    1.71076e+01,    3.40216e+01
   5.57000e+03,    5.01213e+00,    1.70859e+01,    3.40306e+01
   5.58000e+03,    5.01206e+00,    1.70643e+01,    3.40396e+01
   5.59000e+03,    5.01196e+00,    1.70427e+01,    3.40485e+01
   5.60000e+03,    5.01186e+00,    1.70212e+01,    3.40575e+01
   5.61000e+03,    5.01173e+00,    1.69998e+01,    3.40664e+01
   5.62000e+03,    5.01159e+00,    1.69785e+01,    3.40754e+01
   5.63000e+03,    5.01144e+00,    1.69572e+01,    3.40843e+01
   5.64000e+03,    5.01126e+00,    1.69360e+01,    3.40932e+01
   5.65000e+03,    5.01107e+00,    1.69149e+01,    3.41020e+01
   5.66000e+03,    5.01087e+00,    1.68939e+01,    3.41109e+01
   5.67000e+03,    5.01065e+00,    1.68729e+01,    3.41197e+01
   5.68000e+03,    5.01041e+00,    1.68521e+01,    3.41286e+01
   5.69000e+03,    5.01015e+00,    1.68312e+01,    3.41374e+01
   5.70000e+03,    5.00988e+00,    1.68105e+01,    3.41462e+01
   5.71000e+03,    5.00959e+00,    1.67898e+01,    3.41550e+01
   5.72000e+03,    5.00929e+00,    1.67692e+01,    3.41637e+01
   5.73000e+03,    5.00897e+00,    1.67487e+01,    3.41725e+01
   5.74000e+03,    5.00863e+00,    1.67283e+01,    3.41812e+01
   5.75000e+03,    5.00828e+00,    1.67079e+01,    3.41899e+01
   5.76000e+03,    5.00791e+00,    1.66876e+01,    3.41986e+01
   5.77000e+03,    5.00753e+00,    1.66673e+01,    3.42073e+01
   5.78000e+03,    5.00712e+00,    1.66472e+01,    3.42160e+01
   5.79000e+03,    5.00671e+00,    1.66271e+01,    3.42246e+01
   5.80000e+03,    5.00627e+00,    1.66070e+01,    3.42333e+01
   5.81000e+03,    5.00582e+00,    1.65871e+01,    3.42419e+01
   5.82000e+03,    5.00536e+00,    1.65672e+01,    3.42505e+01
   5.83000e+03,    5.00488e+00,    1.65473e+01,    3.42591e+01
   5.84000e+03,    5.00438e+00,    1.65276e+01,    3.42677e+01
   5.85000e+03,    5.00387e+00,    1.65079e+01,    3.42762e+01
   5.86000e+03,    5.00334e+00,    1.64882e+01,    3.42848e+01
   5.87000e+03,    5.00279e+00,    1.64687e+01,    3.42933e+01
   5.88000e+03,    5.00223e+00,    1.64492e+01,    3.43018e+01
   5.89000e+03,    5.00165e+00,    1.64297e+01,    3.43103e+01
   5.90000e+03,    5.00106e+00,    1.64104e+01,    3.43188e+01
   5.91000e+03,    5.00045e+00,    1.63910e+01,    3.43273e+01
   5.92000e+03,    4.99983e+00,    1.63718e+01,    3.43357e+01
   5.93000e+03,    4.99919e+00,    1.63526e+01,    3.43442e+01
   5.94000e+03,    4.99853e+00,    1.63335e+01,    3.43526e+01
   5.95000e+03,    4.99786e+00,    1.63145e+01,    3.43610e+01
   5.96000e+03,    4.99717e+00,    1.62955e+01,    3.43694e+01
   5.97000e+03,    4.99647e+00,    1.62766e+01,    3.43778e+01
   5.98000e+03,    4.99575e+00,    1.62577e+01,    3.43861e+01
   5.99000e+03,    4.99502e+00,    1.62389e+01,    3.43945e+01
   6.00000e+03,    4.99427e+00,    1.62201e+01,    3.44028e+01
   6.01000e+03,    4.99351e+00,    1.62015e+01,    3.44111e+01
   6.02000e+03,    4.99273e+00,    1.61828e+01,    3.44194e+01
   6.03000e+03,    4.99193e+00,    1.61643e+01,    3.44277e+01
   6.04000e+03,    4.99112e+00,    1.61458e+01,    3.44360e+01
   6.05000e+03,    4.99030e+00,    1.61274e+01,    3.44442e+01
   6.06000e+03,    4.98946e+00,    1.61090e+01,    3.44525e+01
   6.07000e+03,    4.98860e+00,    1.60907e+01,    3.44607e+01
   6.08000e+03,    4.98773e+00,    1.60724e+01,    3.44689e+01
   6.09000e+03,    4.98685e+00,    1.60542e+01,    3.44771e+01
   6.10000e+03,    4.98594e+00,    1.60360e+01,    3.44853e+01
   6.11000e+03,    4.98503e+00,    1.60180e+01,    3.44935e+01
   6.12000e+03,    4.98410e+00,    1.59999e+01,    3.45016e+01
   6.13000e+03,    4.98315e+00,    1.59820e+01,    3.45098e+01
   6.14000e+03,    4.98219e+00,    1.59640e+01,    3.45179e+01
   6.15000e+03,    4.98122e+00,    1.59462e+01,    3.45260e+01
   6.16000e+03,    4.98023e+00,    1.59284e+01,    3.45341e+01
   6.17000e+03,    4.97923e+00,    1.59106e+01,    3.45422e+01
   6.18000e+03,    4.97821e+00,    1.58930e+01,    3.45502e+01
   6.19000e+03,    4.97718e+00,    1.58753e+01,    3.45583e+01
   6.20000e+03,    4.97613e+00,    1.58577e+01,    3.45663e+01
   6.21000e+03,    4.97507e+00,    1.58402e+01,    3.45743e+01
   6.22000e+03,    4.97399e+00,    1.58228e+01,    3.45823e+01
   6.23000e+03,    4.97290e+00,    1.58053e+01,    3.45903e+01
   6.24000e+03,    4.97180e+00,    1.57880e+01,    3.45983e+01
   6.25000e+03,    4.97068e+00,    1.57707e+01,    3.46062e+01
   6.26000e+03,    4.96955e+00,    1.57534e+01,    3.46142e+01
   6.27000e+03,    4.96840e+00,    1.57362e+01,    3.46221e+01
   6.28000e+03,    4.96724e+00,    1.57191e+01,    3.46300e+01
   6.29000e+03,    4.96607e+00,    1.57020e+01,    3.46379e+01
   6.30000e+03,    4.96488e+00,    1.56849e+01,    3.46458e+01
   6.31000e+03,    4.96368e+00,    1.56679e+01,    3.46537e+01
   6.32000e+03,    4.96246e+00,    1.56510e+01,    3.46616e+01
   6.33000e+03,    4.96123e+00,    1.56341e+01,    3.46694e+01
   6.34000e+03,    4.95999e+00,    1.56173e+01,    3.46772e+01
   6.35000e+03,    4.95873e+00,    1.56005e+01,    3.46851e+01
   6.36000e+03,    4.95746e+00,    1.55838e+01,    3.46929e+01
   6.37000e+03,    4.95617e+00,    1.55671e+01,    3.47006e+01
   6.38000e+03,    4.95488e+00,    1.55504e+01,    3.47084e+01
   6.39000e+03,    4.95357e+00,    1.55339e+01,    3.47162e+01
   6.40000e+03,    4.95224e+00,    1.55173e+01,    3.47239e+01
   6.41000e+03,    4.95091e+00,    1.55009e+01,    3.47316e+01
   6.42000e+03,    4.94956e+00,    1.54844e+01,    3.47394e+01
   6.43000e+03,    4.94819e+00,    1.54680e+01,    3.47471e+01
   6.44000e+03,    4.94682e+00,    1.54517e+01,    3.47548e+01
   6.45000e+03,    4.94543e+00,    1.54354e+01,    3.47624e+01
   6.46000e+03,    4.94402e+00,    1.54192e+01,    3.47701e+01
   6.47000e+03,    4.94261e+00,    1.54030e+01,    3.47777e+01
   6.48000e+03,    4.94118e+00,    1.53868e+01,    3.47854e+01
   6.49000e+03,    4.93974e+00,    1.53707e+01,    3.47930e+01
   6.50000e+03,    4.93829e+00,    1.53547e+01,    3.48006e+01
   6.51000e+03,    4.93682e+00,    1.53387e+01,    3.48082e+01
   6.52000e+03,    4.93534e+00,    1.53227e+01,    3.48158e+01
   6.53000e+03,    4.93385e+00,    1.53068e+01,    3.48233e+01
   6.54000e+03,    4.93235e+00,    1.52910e+01,    3.48309e+01
   6.55000e+03,    4.93083e+00,    1.52751e+01,    3.48384e+01
   6.56000e+03,    4.92931e+00,    1.52594e+01,    3.48459e+01
   6.57000e+03,    4.92777e+00,    1.52437e+01,    3.48534e+01
   6.58000e+03,    4.92621e+00,    1.52280e+01,    3.48609e+01
   6.59000e+03,    4.92465e+00,    1.52123e+01,    3.48684e+01
   6.60000e+03,    4.92307e+00,    1.51967e+01,    3.48759e+01
   6.61000e+03,    4.92149e+00,    1.51812e+01,    3.48833e+01
   6.62000e+03,    4.91989e+00,    1.51657e+01,    3.48908e+01
   6.63000e+03,    4.91828e+00,    1.51503e+01,    3.48982e+01
   6.64000e+03,    4.91665e+00,    1.51348e+01,    3.49056e+01
   6.65000e+03,    4.91502e+00,    1.51195e+01,    3.49130e+01
   6.66000e+03,    4.91337e+00,    1.51042e+01,    3.49204e+01
   6.67000e+03,    4.91171e+00,    1.50889e+01,    3.49278e+01
   6.68000e+03,    4.91004e+00,    1.50736e+01,    3.49351e+01
   6.69000e+03,    4.90836e+00,    1.50584e+01,    3.49425e+01
   6.70000e+03,    4.90667e+00,    1.50433e+01,    3.49498e+01
   6.71000e+03,    4.90497e+00,    1.50282e+01,    3.49571e+01
   6.72000e+03,    4.90325e+00,    1.50131e+01,    3.49644e+01
   6.73000e+03,    4.90153e+00,    1.49981e+01,    3.49717e+01
   6.74000e+03,    4.89979e+00,    1.49831e+01,    3.49790e+01
   6.75000e+03,    4.89804e+00,    1.49682e+01,    3.49862e+01
   6.76000e+03,    4.89628e+00,    1.49533e+01,    3.49935e+01
   6.77000e+03,    4.89452e+00,    1.49384e+01,    3.50007e+01
   6.78000e+03,    4.89274e+00,    1.49236e+01,    3.50079e+01
   6.79000e+03,    4.89094e+00,    1.49088e+01,    3.50152e+01
   6.80000e+03,    4.88914e+00,    1.48941e+01,    3.50223e+01
   6.81000e+03,    4.88733e+00,    1.48794e+01,    3.50295e+01
   6.82000e+03,    4.88551e+00,    1.48647e+01,    3.50367e+01
   6.83000e+03,    4.88368e+00,    1.48501e+01,    3.50439e+01
   6.84000e+03,    4.88183e+00,    1.48356e+01,    3.50510e+01
   6.85000e+03,    4.87998e+00,    1.48210e+01,    3.50581e+01
   6.86000e+03,    4.87812e+00,    1.48065e+01,    3.50653e+01
   6.87000e+03,    4.87624e+00,    1.47921e+01,    3.50724e+01
   6.88000e+03,    4.87436e+00,    1.47777e+01,    3.50794e+01
   6.89000e+03,    4.87247e+00,    1.47633e+01,    3.50865e+01
   6.90000e+03,    4.87056e+00,    1.47490e+01,    3.50936e+01
   6.91000e+03,    4.86865e+00,    1.47347e+01,    3.51006e+01
   6.92000e+03,    4.86673e+00,    1.47204e+01,    3.51077e+01
   6.93000e+03,    4.86479e+00,    1.47062e+01,    3.51147e+01
   6.94000e+03,    4.86285e+00,    1.46920e+01,    3.51217e+01
   6.95000e+03,    4.86090e+00,    1.46779e+01,    3.51287e+01
   6.96000e+03,    4.85894e+00,    1.46638e+01,    3.51357e+01
   6.97000e+03,    4.85697e+00,    1.46497e+01,    3.51427e+01
   6.98000e+03,    4.85499e+00,    1.46357e+01,    3.51496e+01
   6.99000e+03,    4.85300e+00,    1.46217e+01,    3.51566e+01
   7.00000e+03,    4.85100e+00,    1.46077e+01,    3.51635e+01
   7.01000e+03,    4.84899e+00,    1.45938e+01,    3.51705e+01
   7.02000e+03,    4.84697e+00,    1.45799e+01,    3.51774e+01
   7.03000e+03,    4.84495e+00,    1.45661e+01,    3.51843e+01
   7.04000e+03,    4.84291e+00,    1.45522e+01,    3.51912e+01
   7.05000e+03,    4.84087e+00,    1.45385e+01,    3.51980e+01
   7.06000e+03,    4.83882e+00,    1.45247e+01,    3.52049e+01
   7.07000e+03,    4.83675e+00,    1.45110e+01,    3.52117e+01
   7.08000e+03,    4.83468e+00,    1.44974e+01,    3.52186e+01
   7.09000e+03,    4.83261e+00,    1.44837e+01,    3.52254e+01
   7.10000e+03,    4.83052e+00,    1.44701e+01,    3.52322e+01
   7.11000e+03,    4.82842e+00,    1.44566e+01,    3.52390e+01
   7.12000e+03,    4.82632e+00,    1.44431e+01,    3.52458e+01
   7.13000e+03,    4.82421e+00,    1.44296e+01,    3.52526e+01
   7.14000e+03,    4.82209e+00,    1.44161e+01,    3.52593e+01
   7.15000e+03,    4.81996e+00,    1.44027e+01,    3.52661e+01
   7.16000e+03,    4.81782e+00,    1.43893e+01,    3.52728e+01
   7.17000e+03,    4.81568e+00,    1.43760e+01,    3.52795e+01
   7.18000e+03,    4.81353e+00,    1.43626e+01,    3.52862e+01
   7.19000e+03,    4.81137e+00,    1.43494e+01,    3.52929e+01
   7.20000e+03,    4.80920e+00,    1.43361e+01,    3.52996e+01
   7.21000e+03,    4.80702e+00,    1.43229e+01,    3.53063e+01
   7.22000e+03,    4.80484e+00,    1.43097e+01,    3.53129e+01
   7.23000e+03,    4.80265e+00,    1.42966e+01,    3.53196e+01
   7.24000e+03,    4.80045e+00,    1.42835e+01,    3.53262e+01
   7.25000e+03,    4.79824e+00,    1.42704e+01,    3.53329e+01
   7.26000e+03,    4.79603e+00,    1.42573e+01,    3.53395e+01
   7.27000e+03,    4.79381e+00,    1.42443e+01,    3.53461e+01
   7.28000e+03,    4.79158e+00,    1.42313e+01,    3.53527e+01
   7.29000e+03,    4.78934e+00,    1.42184e+01,    3.53592e+01
   7.30000e+03,    4.78710e+00,    1.42055e+01,    3.53658e+01
   7.31000e+03,    4.78485e+00,    1.41926e+01,    3.53723e+01
   7.32000e+03,    4.78259e+00,    1.41797e+01,    3.53789e+01
   7.33000e+03,    4.78033e+00,    1.41669e+01,    3.53854e+01
   7.34000e+03,    4.77806e+00,    1.41541e+01,    3.53919e+01
   7.35000e+03,    4.77578e+00,    1.41413e+01,    3.53984e+01
   7.36000e+03,    4.77350e+00,    1.41286e+01,    3.54049e+01
   7.37000e+03,    4.77121e+00,    1.41159e+01,    3.54114e+01
   7.38000e+03,    4.76891e+00,    1.41033e+01,    3.54179e+01
   7.39000e+03,    4.76661e+00,    1.40906e+01,    3.54243e+01
   7.40000e+03,    4.76430e+00,    1.40780e+01,    3.54308e+01
   7.41000e+03,    4.76198e+00,    1.40655e+01,    3.54372e+01
   7.42000e+03,    4.75966e+00,    1.40529e+01,    3.54436e+01
   7.43000e+03,    4.75733e+00,    1.40404e+01,    3.54500e+01
   7.44000e+03,    4.75499e+00,    1.40279e+01,    3.54564e+01
   7.45000e+03,    4.75265e+00,    1.40155e+01,    3.54628e+01
   7.46000e+03,    4.75030e+00,    1.40031e+01,    3.54692e+01
   7.47000e+03,    4.74795e+00,    1.39907e+01,    3.54756e+01
   7.48000e+03,    4.74559e+00,    1.39783e+01,    3.54819e+01
   7.49000e+03,    4.74322e+00,    1.39660e+01,    3.54882e+01
   7.50000e+03,    4.74085e+00,    1.39537e+01,    3.54946e+01
   7.51000e+03,    4.73847e+00,    1.39414e+01,    3.55009e+01
   7.52000e+03,    4.73609e+00,    1.39292e+01,    3.55072e+01
   7.53000e+03,    4.73370e+00,    1.39170e+01,    3.55135e+01
   7.54000e+03,    4.73131e+00,    1.39048e+01,    3.55198e+01
   7.55000e+03,    4.72891e+00,    1.38926e+01,    3.55260e+01
   7.56000e+03,    4.72650e+00,    1.38805e+01,    3.55323e+01
   7.57000e+03,    4.72409e+00,    1.38684e+01,    3.55385e+01
   7.58000e+03,    4.72168e+00,    1.38564e+01,    3.55448e+01
   7.59000e+03,    4.71926e+00,    1.38443e+01,    3.55510e+01
   7.60000e+03,    4.71683e+00,    1.38323e+01,    3.55572e+01
   7.61000e+03,    4.71440e+00,    1.38203e+01,    3.55634e+01
   7.62000e+03,    4.71196e+00,    1.38084e+01,    3.55696e+01
   7.63000e+03,    4.70952e+00,    1.37965e+01,    3.55758e+01
   7.64000e+03,    4.70707e+00,    1.37846e+01,    3.55819e+01
   7.65000e+03,    4.70462e+00,    1.37727e+01,    3.55881e+01
   7.66000e+03,    4.70217e+00,    1.37609e+01,    3.55942e+01
   7.67000e+03,    4.69971e+00,    1.37490e+01,    3.56004e+01
   7.68000e+03,    4.69724e+00,    1.37373e+01,    3.56065e+01
   7.69000e+03,    4.69477e+00,    1.37255e+01,    3.56126e+01
   7.70000e+03,    4.69230e+00,    1.37138e+01,    3.56187e+01
   7.71000e+03,    4.68982e+00,    1.37021e+01,    3.56248e+01
   7.72000e+03,    4.68733e+00,    1.36904e+01,    3.56309e+01
   7.73000e+03,    4.68484e+00,    1.36787e+01,    3.56369e+01
   7.74000e+03,    4.68235e+00,    1.36671e+01,    3.56430e+01
   7.75000e+03,    4.67985e+00,    1.36555e+01,    3.56490e+01
   7.76000e+03,    4.67735e+00,    1.36440e+01,    3.56551e+01
   7.77000e+03,    4.67485e+00,    1.36324e+01,    3.56611e+01
   7.78000e+03,    4.67234e+00,    1.36209e+01,    3.56671e+01
   7.79000e+03,    4.66982e+00,    1.36094e+01,    3.56731e+01
   7.80000e+03,    4.66731e+00,    1.35979e+01,    3.56791e+01
   7.81000e+03,    4.66479e+00,    1.35865e+01,    3.56851e+01
   7.82000e+03,    4.66226e+00,    1.35751e+01,    3.56910e+01
   7.83000e+03,    4.65973e+00,    1.35637e+01,    3.56970e+01
   7.84000e+03,    4.65720e+00,    1.35524e+01,    3.57029e+01
   7.85000e+03,    4.65466e+00,    1.35410e+01,    3.57089e+01
   7.86000e+03,    4.65212e+00,    1.35297e+01,    3.57148e+01
   7.87000e+03,    4.64958e+00,    1.35184e+01,    3.57207e+01
   7.88000e+03,    4.64703e+00,    1.35072e+01,    3.57266e+01
   7.89000e+03,    4.64448e+00,    1.34959e+01,    3.57325e+01
   7.90000e+03,    4.64192e+00,    1.34847e+01,    3.57384e+01
   7.91000e+03,    4.63937e+00,    1.34736e+01,    3.57443e+01
   7.92000e+03,    4.63680e+00,    1.34624e+01,    3.57501e+01
   7.93000e+03,    4.63424e+00,    1.34513e+01,    3.57560e+01
   7.94000e+03,    4.63167e+00,    1.34402e+01,    3.57618e+01
   7.95000e+03,    4.62910e+00,    1.34291e+01,    3.57676e+01
   7.96000e+03,    4.62653e+00,    1.34180e+01,    3.57734e+01
   7.97000e+03,    4.62395e+00,    1.34070e+01,    3.57793e+01
   7.98000e+03,    4.62137e+00,    1.33960e+01,    3.57851e+01
   7.99000e+03,    4.61879e+00,    1.33850e+01,    3.57908e+01
   8.00000e+03,    4.61620e+00,    1.33740e+01,    3.57966e+01
   8.01000e+03,    4.61361e+00,    1.33631e+01,    3.58024e+01
   8.02000e+03,    4.61102e+00,    1.33522e+01,    3.58081e+01
   8.03000e+03,    4.60843e+00,    1.33413e+01,    3.58139e+01
   8.04000e+03,    4.60583e+00,    1.33304e+01,    3.58196e+01
   8.05000e+03,    4.60323e+00,    1.33196e+01,    3.58253e+01
   8.06000e+03,    4.60063e+00,    1.33088e+01,    3.58310e+01
   8.07000e+03,    4.59802e+00,    1.32980e+01,    3.58368e+01
   8.08000e+03,    4.59541e+00,    1.32872e+01,    3.58424e+01
   8.09000e+03,    4.59280e+00,    1.32765e+01,    3.58481e+01
   8.10000e+03,    4.59019e+00,    1.32658e+01,    3.58538e+01
   8.11000e+03,    4.58758e+00,    1.32551e+01,    3.58595e+01
   8.12000e+03,    4.58496e+00,    1.32444e+01,    3.58651e+01
   8.13000e+03,    4.58234e+00,    1.32337e+01,    3.58708e+01
   8.14000e+03,    4.57972e+00,    1.32231e+01,    3.58764e+01
   8.15000e+03,    4.57709e+00,    1.32125e+01,    3.58820e+01
   8.16000e+03,    4.57447e+00,    1.32019e+01,    3.58876e+01
   8.17000e+03,    4.57184e+00,    1.31914e+01,    3.58932e+01
   8.18000e+03,    4.56921e+00,    1.31808e+01,    3.58988e+01
   8.19000e+03,    4.56658e+00,    1.31703e+01,    3.59044e+01
   8.20000e+03,    4.56394e+00,    1.31598e+01,    3.59100e+01
   8.21000e+03,    4.56131e+00,    1.31493e+01,    3.59155e+01
   8.22000e+03,    4.55867e+00,    1.31389e+01,    3.59211e+01
   8.23000e+03,    4.55603e+00,    1.31285e+01,    3.59266e+01
   8.24000e+03,    4.55339e+00,    1.31181e+01,    3.59321e+01
   8.25000e+03,    4.55075e+00,    1.31077e+01,    3.59377e+01
   8.26000e+03,    4.54810e+00,    1.30973e+01,    3.59432e+01
   8.27000e+03,    4.54546e+00,    1.30870e+01,    3.59487e+01
   8.28000e+03,    4.54281e+00,    1.30767e+01,    3.59542e+01
   8.29000e+03,    4.54016e+00,    1.30664e+01,    3.59596e+01
   8.30000e+03,    4.53751e+00,    1.30561e+01,    3.59651e+01
   8.31000e+03,    4.53486e+00,    1.30458e+01,    3.59706e+01
   8.32000e+03,    4.53221e+00,    1.30356e+01,    3.59760e+01
   8.33000e+03,    4.52955e+00,    1.30254e+01,    3.59815e+01
   8.34000e+03,    4.52689e+00,    1.30152e+01,    3.59869e+01
   8.35000e+03,    4.52424e+00,    1.30050e+01,    3.59923e+01
   8.36000e+03,    4.52158e+00,    1.29949e+01,    3.59977e+01
   8.37000e+03,    4.51892e+00,    1.29848e+01,    3.60032e+01
   8.38000e+03,    4.51626e+00,    1.29747e+01,    3.60085e+01
   8.39000e+03,    4.51360e+00,    1.29646e+01,    3.60139e+01
   8.40000e+03,    4.51093e+00,    1.29545e+01,    3.60193e+01
   8.41000e+03,    4.50827e+00,    1.29445e+01,    3.60247e+01
   8.42000e+03,    4.50560e+00,    1.29344e+01,    3.60300e+01
   8.43000e+03,    4.50294e+00,    1.29244e+01,    3.60354e+01
   8.44000e+03,    4.50027e+00,    1.29145e+01,    3.60407e+01
   8.45000e+03,    4.49761e+00,    1.29045e+01,    3.60460e+01
   8.46000e+03,    4.49494e+00,    1.28946e+01,    3.60514e+01
   8.47000e+03,    4.49227e+00,    1.28847e+01,    3.60567e+01
   8.48000e+03,    4.48960e+00,    1.28748e+01,    3.60620e+01
   8.49000e+03,    4.48693e+00,    1.28649e+01,    3.60673e+01
   8.50000e+03,    4.48426e+00,    1.28550e+01,    3.60725e+01
   8.51000e+03,    4.48159e+00,    1.28452e+01,    3.60778e+01
   8.52000e+03,    4.47891e+00,    1.28354e+01,    3.60831e+01
   8.53000e+03,    4.47624e+00,    1.28256e+01,    3.60883e+01
   8.54000e+03,    4.47357e+00,    1.28158e+01,    3.60936e+01
   8.55000e+03,    4.47089e+00,    1.28060e+01,    3.60988e+01
   8.56000e+03,    4.46822e+00,    1.27963e+01,    3.61040e+01
   8.57000e+03,    4.46554e+00,    1.27866e+01,    3.61092e+01
   8.58000e+03,    4.46287e+00,    1.27769e+01,    3.61144e+01
   8.59000e+03,    4.46020e+00,    1.27672e+01,    3.61196e+01
   8.60000e+03,    4.45752e+00,    1.27575e+01,    3.61248e+01
   8.61000e+03,    4.45484e+00,    1.27479e+01,    3.61300e+01
   8.62000e+03,    4.45217e+00,    1.27383e+01,    3.61352e+01
   8.63000e+03,    4.44949e+00,    1.27287e+01,    3.61403e+01
   8.64000e+03,    4.44682e+00,    1.27191e+01,    3.61455e+01
   8.65000e+03,    4.44414e+00,    1.27095e+01,    3.61506e+01
   8.66000e+03,    4.44146e+00,    1.27000e+01,    3.61558e+01
   8.67000e+03,    4.43879e+00,    1.26904e+01,    3.61609e+01
   8.68000e+03,    4.43611e+00,    1.26809e+01,    3.61660e+01
   8.69000e+03,    4.43344e+00,    1.26714e+01,    3.61711e+01
   8.70000e+03,    4.43076e+00,    1.26620e+01,    3.61762e+01
   8.71000e+03,    4.42808e+00,    1.26525e+01,    3.61813e+01
   8.72000e+03,    4.42541e+00,    1.26431e+01,    3.61864e+01
   8.73000e+03,    4.42273e+00,    1.26337e+01,    3.61914e+01
   8.74000e+03,    4.42006e+00,    1.26243e+01,    3.61965e+01
   8.75000e+03,    4.41738e+00,    1.26149e+01,    3.62016e+01
   8.76000e+03,    4.41471e+00,    1.26055e+01,    3.62066e+01
   8.77000e+03,    4.41203e+00,    1.25962e+01,    3.62116e+01
   8.78000e+03,    4.40936e+00,    1.25869e+01,    3.62167e+01
   8.79000e+03,    4.40669e+00,    1.25776e+01,    3.62217e+01
   8.80000e+03,    4.40401e+00,    1.25683e+01,    3.62267e+01
   8.81000e+03,    4.40134e+00,    1.25590e+01,    3.62317e+01
   8.82000e+03,    4.39867e+00,    1.25498e+01,    3.62367e+01
   8.83000e+03,    4.39600e+00,    1.25405e+01,    3.62417e+01
   8.84000e+03,    4.39333e+00,    1.25313e+01,    3.62466e+01
   8.85000e+03,    4.39066e+00,    1.25221e+01,    3.62516e+01
   8.86000e+03,    4.38799e+00,    1.25129e+01,    3.62566e+01
   8.87000e+03,    4.38532e+00,    1.25038e+01,    3.62615e+01
   8.88000e+03,    4.38265e+00,    1.24946e+01,    3.62664e+01
   8.89000e+03,    4.37998e+00,    1.24855e+01,    3.62714e+01
   8.90000e+03,    4.37731e+00,    1.24764e+01,    3.62763e+01
   8.91000e+03,    4.37465e+00,    1.24673e+01,    3.62812e+01
   8.92000e+03,    4.37198e+00,    1.24582e+01,    3.62861e+01
   8.93000e+03,    4.36932e+00,    1.24492e+01,    3.62910e+01
   8.94000e+03,    4.36665e+00,    1.24401e+01,    3.62959e+01
   8.95000e+03,    4.36399e+00,    1.24311e+01,    3.63008e+01
   8.96000e+03,    4.36133e+00,    1.24221e+01,    3.63057e+01
   8.97000e+03,    4.35867e+00,    1.24131e+01,    3.63105e+01
   8.98000e+03,    4.35601e+00,    1.24042e+01,    3.63154e+01
   8.99000e+03,    4.35335e+00,    1.23952e+01,    3.63202e+01
   9.00000e+03,    4.35069e+00,    1.23863e+01,    3.63251e+01
   9.01000e+03,    4.34803e+00,    1.23773e+01,    3.63299e+01
   9.02000e+03,    4.34537e+00,    1.23684e+01,    3.63347e+01
   9.03000e+03,    4.34272e+00,    1.23596e+01,    3.63395e+01
   9.04000e+03,    4.34007e+00,    1.23507e+01,    3.63443e+01
   9.05000e+03,    4.33741e+00,    1.23418e+01,    3.63491e+01
   9.06000e+03,    4.33476e+00,    1.23330e+01,    3.63539e+01
   9.07000e+03,    4.33211e+00,    1.23242e+01,    3.63587e+01
   9.08000e+03,    4.32946e+00,    1.23154e+01,    3.63635e+01
   9.09000e+03,    4.32681e+00,    1.23066e+01,    3.63682e+01
   9.10000e+03,    4.32417e+00,    1.22978e+01,    3.63730e+01
   9.11000e+03,    4.32152e+00,    1.22891e+01,    3.63777e+01
   9.12000e+03,    4.31888e+00,    1.22803e+01,    3.63825e+01
   9.13000e+03,    4.31623e+00,    1.22716e+01,    3.63872e+01
   9.14000e+03,    4.31359e+00,    1.22629e+01,    3.63919e+01
   9.15000e+03,    4.31095e+00,    1.22542e+01,    3.63966e+01
   9.16000e+03,    4.30831e+00,    1.22455e+01,    3.64014e+01
   9.17000e+03,    4.30568e+00,    1.22369e+01,    3.64061e+01
   9.18000e+03,    4.30304e+00,    1.22282e+01,    3.64107e+01
   9.19000e+03,    4.30041e+00,    1.22196e+01,    3.64154e+01
   9.20000e+03,    4.29778e+00,    1.22110e+01,    3.64201e+01
   9.21000e+03,    4.29514e+00,    1.22024e+01,    3.64248e+01
   9.22000e+03,    4.29251e+00,    1.21938e+01,    3.64294e+01
   9.23000e+03,    4.28989e+00,    1.21853e+01,    3.64341e+01
   9.24000e+03,    4.28726e+00,    1.21767e+01,    3.64387e+01
   9.25000e+03,    4.28464e+00,    1.21682e+01,    3.64434e+01
   9.26000e+03,    4.28201e+00,    1.21597e+01,    3.64480e+01
   9.27000e+03,    4.27939e+00,    1.21512e+01,    3.64526e+01
   9.28000e+03,    4.27677e+00,    1.21427e+01,    3.64572e+01
   9.29000e+03,    4.27415e+00,    1.21342e+01,    3.64618e+01
   9.30000e+03,    4.27154e+00,    1.21258e+01,    3.64664e+01
   9.31000e+03,    4.26892e+00,    1.21173e+01,    3.64710e+01
   9.32000e+03,    4.26631e+00,    1.21089e+01,    3.64756e+01
   9.33000e+03,    4.26370e+00,    1.21005e+01,    3.64802e+01
   9.34000e+03,    4.26109e+00,    1.20921e+01,    3.64847e+01
   9.35000e+03,    4.25848e+00,    1.20837e+01,    3.64893e+01
   9.36000e+03,    4.25588e+00,    1.20754e+01,    3.64938e+01
   9.37000e+03,    4.25328e+00,    1.20670e+01,    3.64984e+01
   9.38000e+03,    4.25067e+00,    1.20587e+01,    3.65029e+01
   9.39000e+03,    4.24807e+00,    1.20504e+01,    3.65074e+01
   9.40000e+03,    4.24548e+00,    1.20421e+01,    3.65120e+01
   9.41000e+03,    4.24288e+00,    1.20338e+01,    3.65165e+01
   9.42000e+03,    4.24029e+00,    1.20255e+01,    3.65210e+01
   9.43000e+03,    4.23770e+00,    1.20173e+01,    3.65255e+01
   9.44000e+03,    4.23511e+00,    1.20090e+01,    3.65300e+01
   9.45000e+03,    4.23252e+00,    1.20008e+01,    3.65345e+01
   9.46000e+03,    4.22993e+00,    1.19926e+01,    3.65389e+01
   9.47000e+03,    4.22735e+00,    1.19844e+01,    3.65434e+01
   9.48000e+03,    4.22477e+00,    1.19762e+01,    3.65479e+01
   9.49000e+03,    4.22219e+00,    1.19680e+01,    3.65523e+01
   9.50000e+03,    4.21961e+00,    1.19599e+01,    3.65568e+01
   9.51000e+03,    4.21704e+00,    1.19517e+01,    3.65612e+01
   9.52000e+03,    4.21446e+00,    1.19436e+01,    3.65656e+01
   9.53000e+03,    4.21189e+00,    1.19355e+01,    3.65701e+01
   9.54000e+03,    4.20932e+00,    1.19274e+01,    3.65745e+01
   9.55000e+03,    4.20676e+00,    1.19193e+01,    3.65789e+01
   9.56000e+03,    4.20419e+00,    1.19112e+01,    3.65833e+01
   9.57000e+03,    4.20163e+00,    1.19032e+01,    3.65877e+01
   9.58000e+03,    4.19907e+00,    1.18951e+01,    3.65921e+01
   9.59000e+03,    4.19652e+00,    1.18871e+01,    3.65964e+01
   9.60000e+03,    4.19396e+00,    1.18791e+01,    3.66008e+01
   9.61000e+03,    4.19141e+00,    1.18711e+01,    3.66052e+01
   9.62000e+03,    4.18886e+00,    1.18631e+01,    3.66095e+01
   9.63000e+03,    4.18631e+00,    1.18552e+01,    3.66139e+01
   9.64000e+03,    4.18376e+00,    1.18472e+01,    3.66182e+01
   9.65000e+03,    4.18122e+00,    1.18393e+01,    3.66226e+01
   9.66000e+03,    4.17868e+00,    1.18313e+01,    3.66269e+01
   9.67000e+03,    4.17614e+00,    1.18234e+01,    3.66312e+01
   9.68000e+03,    4.17360e+00,    1.18155e+01,    3.66355e+01
   9.69000e+03,    4.17107e+00,    1.18076e+01,    3.66398e+01
   9.70000e+03,    4.16854e+00,    1.17997e+01,    3.66441e+01
   9.71000e+03,    4.16601e+00,    1.17919e+01,    3.66484e+01
   9.72000e+03,    4.16348e+00,    1.17840e+01,    3.66527e+01
   9.73000e+03,    4.16096e+00,    1.17762e+01,    3.66570e+01
   9.74000e+03,    4.15844e+00,    1.17684e+01,    3.66613e+01
   9.75000e+03,    4.15592e+00,    1.17606e+01,    3.66655e+01
   9.76000e+03,    4.15340e+00,    1.17528e+01,    3.66698e+01
   9.77000e+03,    4.15089e+00,    1.17450e+01,    3.66740e+01
   9.78000e+03,    4.14838e+00,    1.17372e+01,    3.66783e+01
   9.79000e+03,    4.14587e+00,    1.17295e+01,    3.66825e+01
   9.80000e+03,    4.14336e+00,    1.17218e+01,    3.66868e+01
   9.81000e+03,    4.14086e+00,    1.17140e+01,    3.66910e+01
   9.82000e+03,    4.13836e+00,    1.17063e+01,    3.66952e+01
   9.83000e+03,    4.13586e+00,    1.16986e+01,    3.66994e+01
   9.84000e+03,    4.13337e+00,    1.16909e+01,    3.67036e+01
   9.85000e+03,    4.13087e+00,    1.16833e+01,    3.67078e+01
   9.86000e+03,    4.12838e+00,    1.16756e+01,    3.67120e+01
   9.87000e+03,    4.12589e+00,    1.16679e+01,    3.67162e+01
   9.88000e+03,    4.12341e+00,    1.16603e+01,    3.67204e+01
   9.89000e+03,    4.12093e+00,    1.16527e+01,    3.67245e+01
   9.90000e+03,    4.11845e+00,    1.16451e+01,    3.67287e+01
   9.91000e+03,    4.11597e+00,    1.16375e+01,    3.67329e+01
   9.92000e+03,    4.11350e+00,    1.16299e+01,    3.67370e+01
   9.93000e+03,    4.11103e+00,    1.16223e+01,    3.67412e+01
   9.94000e+03,    4.10856e+00,    1.16148e+01,    3.67453e+01
   9.95000e+03,    4.10609e+00,    1.16072e+01,    3.67494e+01
   9.96000e+03,    4.10363e+00,    1.15997e+01,    3.67535e+01
   9.97000e+03,    4.10117e+00,    1.15922e+01,    3.67577e+01
   9.98000e+03,    4.09871e+00,    1.15847e+01,    3.67618e+01
   9.99000e+03,    4.09625e+00,    1.15772e+01,    3.67659e+01
   1.00000e+04,    4.09380e+00,    1.15697e+01,    3.67700e+01
