# Statistical Thermodynamics
# Computation done on 12-Feb-2020 07:52:14
# Species CH(X)
# Standard state T =    2.98150e+02 (K) P =    1.01325e+05 (Pa)
# C_P           2.91551e+01 (J/K mol)
# H             5.94130e+05 (J/mol)
# S             1.82935e+02 (J/K mol)
# C_P/R         3.50655e+00
# H/RT          2.39669e+02
# S/R           2.20021e+01
#     T            C_P/R           H/RT            S/R
   2.00000e+02,    3.50432e+00,    3.55567e+02,    2.06025e+01
   2.10000e+02,    3.50450e+00,    3.38802e+02,    2.07735e+01
   2.20000e+02,    3.50469e+00,    3.23561e+02,    2.09365e+01
   2.30000e+02,    3.50488e+00,    3.09646e+02,    2.10923e+01
   2.40000e+02,    3.50509e+00,    2.96890e+02,    2.12415e+01
   2.50000e+02,    3.50530e+00,    2.85155e+02,    2.13846e+01
   2.60000e+02,    3.50552e+00,    2.74322e+02,    2.15221e+01
   2.70000e+02,    3.50576e+00,    2.64292e+02,    2.16544e+01
   2.80000e+02,    3.50601e+00,    2.54978e+02,    2.17819e+01
   2.90000e+02,    3.50630e+00,    2.46306e+02,    2.19049e+01
   3.00000e+02,    3.50661e+00,    2.38213e+02,    2.20238e+01
   3.10000e+02,    3.50697e+00,    2.30642e+02,    2.21388e+01
   3.20000e+02,    3.50738e+00,    2.23544e+02,    2.22501e+01
   3.30000e+02,    3.50785e+00,    2.16876e+02,    2.23580e+01
   3.40000e+02,    3.50839e+00,    2.10601e+02,    2.24628e+01
   3.50000e+02,    3.50901e+00,    2.04684e+02,    2.25645e+01
   3.60000e+02,    3.50972e+00,    1.99096e+02,    2.26633e+01
   3.70000e+02,    3.51053e+00,    1.93809e+02,    2.27595e+01
   3.80000e+02,    3.51146e+00,    1.88802e+02,    2.28531e+01
   3.90000e+02,    3.51252e+00,    1.84051e+02,    2.29444e+01
   4.00000e+02,    3.51372e+00,    1.79537e+02,    2.30333e+01
   4.10000e+02,    3.51506e+00,    1.75244e+02,    2.31201e+01
   4.20000e+02,    3.51656e+00,    1.71155e+02,    2.32048e+01
   4.30000e+02,    3.51823e+00,    1.67257e+02,    2.32876e+01
   4.40000e+02,    3.52008e+00,    1.63535e+02,    2.33685e+01
   4.50000e+02,    3.52210e+00,    1.59979e+02,    2.34476e+01
   4.60000e+02,    3.52432e+00,    1.56578e+02,    2.35250e+01
   4.70000e+02,    3.52673e+00,    1.53322e+02,    2.36009e+01
   4.80000e+02,    3.52934e+00,    1.50201e+02,    2.36751e+01
   4.90000e+02,    3.53216e+00,    1.47208e+02,    2.37479e+01
   5.00000e+02,    3.53518e+00,    1.44334e+02,    2.38193e+01
   5.10000e+02,    3.53840e+00,    1.41574e+02,    2.38894e+01
   5.20000e+02,    3.54184e+00,    1.38919e+02,    2.39581e+01
   5.30000e+02,    3.54548e+00,    1.36365e+02,    2.40256e+01
   5.40000e+02,    3.54933e+00,    1.33905e+02,    2.40919e+01
   5.50000e+02,    3.55338e+00,    1.31535e+02,    2.41571e+01
   5.60000e+02,    3.55764e+00,    1.29250e+02,    2.42211e+01
   5.70000e+02,    3.56210e+00,    1.27045e+02,    2.42842e+01
   5.80000e+02,    3.56675e+00,    1.24916e+02,    2.43461e+01
   5.90000e+02,    3.57159e+00,    1.22859e+02,    2.44072e+01
   6.00000e+02,    3.57662e+00,    1.20871e+02,    2.44672e+01
   6.10000e+02,    3.58183e+00,    1.18948e+02,    2.45264e+01
   6.20000e+02,    3.58721e+00,    1.17087e+02,    2.45847e+01
   6.30000e+02,    3.59277e+00,    1.15286e+02,    2.46421e+01
   6.40000e+02,    3.59849e+00,    1.13541e+02,    2.46987e+01
   6.50000e+02,    3.60437e+00,    1.11849e+02,    2.47546e+01
   6.60000e+02,    3.61040e+00,    1.10209e+02,    2.48097e+01
   6.70000e+02,    3.61657e+00,    1.08618e+02,    2.48640e+01
   6.80000e+02,    3.62289e+00,    1.07074e+02,    2.49176e+01
   6.90000e+02,    3.62934e+00,    1.05575e+02,    2.49706e+01
   7.00000e+02,    3.63591e+00,    1.04119e+02,    2.50228e+01
   7.10000e+02,    3.64260e+00,    1.02703e+02,    2.50744e+01
   7.20000e+02,    3.64941e+00,    1.01328e+02,    2.51254e+01
   7.30000e+02,    3.65632e+00,    9.99897e+01,    2.51758e+01
   7.40000e+02,    3.66334e+00,    9.86879e+01,    2.52256e+01
   7.50000e+02,    3.67045e+00,    9.74210e+01,    2.52748e+01
   7.60000e+02,    3.67765e+00,    9.61875e+01,    2.53235e+01
   7.70000e+02,    3.68493e+00,    9.49861e+01,    2.53716e+01
   7.80000e+02,    3.69229e+00,    9.38156e+01,    2.54192e+01
   7.90000e+02,    3.69972e+00,    9.26748e+01,    2.54663e+01
   8.00000e+02,    3.70723e+00,    9.15627e+01,    2.55129e+01
   8.10000e+02,    3.71479e+00,    9.04781e+01,    2.55590e+01
   8.20000e+02,    3.72241e+00,    8.94201e+01,    2.56046e+01
   8.30000e+02,    3.73009e+00,    8.83876e+01,    2.56498e+01
   8.40000e+02,    3.73782e+00,    8.73798e+01,    2.56945e+01
   8.50000e+02,    3.74559e+00,    8.63959e+01,    2.57388e+01
   8.60000e+02,    3.75340e+00,    8.54348e+01,    2.57826e+01
   8.70000e+02,    3.76125e+00,    8.44960e+01,    2.58261e+01
   8.80000e+02,    3.76913e+00,    8.35786e+01,    2.58691e+01
   8.90000e+02,    3.77704e+00,    8.26819e+01,    2.59117e+01
   9.00000e+02,    3.78498e+00,    8.18053e+01,    2.59540e+01
   9.10000e+02,    3.79295e+00,    8.09479e+01,    2.59959e+01
   9.20000e+02,    3.80093e+00,    8.01093e+01,    2.60373e+01
   9.30000e+02,    3.80894e+00,    7.92889e+01,    2.60785e+01
   9.40000e+02,    3.81696e+00,    7.84859e+01,    2.61193e+01
   9.50000e+02,    3.82499e+00,    7.77000e+01,    2.61597e+01
   9.60000e+02,    3.83304e+00,    7.69305e+01,    2.61998e+01
   9.70000e+02,    3.84109e+00,    7.61770e+01,    2.62396e+01
   9.80000e+02,    3.84915e+00,    7.54389e+01,    2.62790e+01
   9.90000e+02,    3.85721e+00,    7.47158e+01,    2.63181e+01
   1.00000e+03,    3.86528e+00,    7.40072e+01,    2.63569e+01
   1.01000e+03,    3.87335e+00,    7.33128e+01,    2.63954e+01
   1.02000e+03,    3.88142e+00,    7.26321e+01,    2.64336e+01
   1.03000e+03,    3.88949e+00,    7.19646e+01,    2.64715e+01
   1.04000e+03,    3.89755e+00,    7.13101e+01,    2.65091e+01
   1.05000e+03,    3.90561e+00,    7.06681e+01,    2.65465e+01
   1.06000e+03,    3.91366e+00,    7.00383e+01,    2.65835e+01
   1.07000e+03,    3.92171e+00,    6.94204e+01,    2.66203e+01
   1.08000e+03,    3.92975e+00,    6.88139e+01,    2.66568e+01
   1.09000e+03,    3.93778e+00,    6.82187e+01,    2.66931e+01
   1.10000e+03,    3.94580e+00,    6.76344e+01,    2.67291e+01
   1.11000e+03,    3.95381e+00,    6.70606e+01,    2.67648e+01
   1.12000e+03,    3.96181e+00,    6.64972e+01,    2.68003e+01
   1.13000e+03,    3.96979e+00,    6.59438e+01,    2.68356e+01
   1.14000e+03,    3.97777e+00,    6.54002e+01,    2.68706e+01
   1.15000e+03,    3.98573e+00,    6.48662e+01,    2.69054e+01
   1.16000e+03,    3.99367e+00,    6.43414e+01,    2.69399e+01
   1.17000e+03,    4.00160e+00,    6.38256e+01,    2.69742e+01
   1.18000e+03,    4.00951e+00,    6.33187e+01,    2.70083e+01
   1.19000e+03,    4.01741e+00,    6.28203e+01,    2.70422e+01
   1.20000e+03,    4.02529e+00,    6.23303e+01,    2.70758e+01
   1.21000e+03,    4.03315e+00,    6.18485e+01,    2.71093e+01
   1.22000e+03,    4.04100e+00,    6.13746e+01,    2.71425e+01
   1.23000e+03,    4.04882e+00,    6.09085e+01,    2.71755e+01
   1.24000e+03,    4.05663e+00,    6.04500e+01,    2.72083e+01
   1.25000e+03,    4.06442e+00,    5.99989e+01,    2.72410e+01
   1.26000e+03,    4.07219e+00,    5.95550e+01,    2.72734e+01
   1.27000e+03,    4.07994e+00,    5.91182e+01,    2.73056e+01
   1.28000e+03,    4.08767e+00,    5.86882e+01,    2.73376e+01
   1.29000e+03,    4.09538e+00,    5.82650e+01,    2.73695e+01
   1.30000e+03,    4.10307e+00,    5.78483e+01,    2.74011e+01
   1.31000e+03,    4.11073e+00,    5.74381e+01,    2.74326e+01
   1.32000e+03,    4.11838e+00,    5.70341e+01,    2.74639e+01
   1.33000e+03,    4.12600e+00,    5.66363e+01,    2.74950e+01
   1.34000e+03,    4.13360e+00,    5.62444e+01,    2.75259e+01
   1.35000e+03,    4.14118e+00,    5.58584e+01,    2.75567e+01
   1.36000e+03,    4.14874e+00,    5.54782e+01,    2.75873e+01
   1.37000e+03,    4.15627e+00,    5.51036e+01,    2.76177e+01
   1.38000e+03,    4.16378e+00,    5.47344e+01,    2.76480e+01
   1.39000e+03,    4.17127e+00,    5.43706e+01,    2.76781e+01
   1.40000e+03,    4.17873e+00,    5.40121e+01,    2.77080e+01
   1.41000e+03,    4.18617e+00,    5.36587e+01,    2.77377e+01
   1.42000e+03,    4.19358e+00,    5.33103e+01,    2.77674e+01
   1.43000e+03,    4.20097e+00,    5.29669e+01,    2.77968e+01
   1.44000e+03,    4.20834e+00,    5.26282e+01,    2.78261e+01
   1.45000e+03,    4.21568e+00,    5.22943e+01,    2.78553e+01
   1.46000e+03,    4.22299e+00,    5.19650e+01,    2.78843e+01
   1.47000e+03,    4.23028e+00,    5.16403e+01,    2.79131e+01
   1.48000e+03,    4.23755e+00,    5.13200e+01,    2.79418e+01
   1.49000e+03,    4.24479e+00,    5.10040e+01,    2.79704e+01
   1.50000e+03,    4.25200e+00,    5.06923e+01,    2.79988e+01
   1.51000e+03,    4.25919e+00,    5.03848e+01,    2.80271e+01
   1.52000e+03,    4.26634e+00,    5.00813e+01,    2.80552e+01
   1.53000e+03,    4.27348e+00,    4.97819e+01,    2.80832e+01
   1.54000e+03,    4.28058e+00,    4.94864e+01,    2.81111e+01
   1.55000e+03,    4.28766e+00,    4.91948e+01,    2.81388e+01
   1.56000e+03,    4.29471e+00,    4.89070e+01,    2.81664e+01
   1.57000e+03,    4.30174e+00,    4.86228e+01,    2.81939e+01
   1.58000e+03,    4.30874e+00,    4.83423e+01,    2.82212e+01
   1.59000e+03,    4.31570e+00,    4.80654e+01,    2.82484e+01
   1.60000e+03,    4.32264e+00,    4.77920e+01,    2.82755e+01
   1.61000e+03,    4.32956e+00,    4.75220e+01,    2.83024e+01
   1.62000e+03,    4.33644e+00,    4.72554e+01,    2.83293e+01
   1.63000e+03,    4.34330e+00,    4.69922e+01,    2.83560e+01
   1.64000e+03,    4.35012e+00,    4.67321e+01,    2.83826e+01
   1.65000e+03,    4.35692e+00,    4.64753e+01,    2.84090e+01
   1.66000e+03,    4.36369e+00,    4.62216e+01,    2.84354e+01
   1.67000e+03,    4.37043e+00,    4.59709e+01,    2.84616e+01
   1.68000e+03,    4.37714e+00,    4.57233e+01,    2.84877e+01
   1.69000e+03,    4.38382e+00,    4.54787e+01,    2.85137e+01
   1.70000e+03,    4.39047e+00,    4.52370e+01,    2.85396e+01
   1.71000e+03,    4.39709e+00,    4.49981e+01,    2.85654e+01
   1.72000e+03,    4.40368e+00,    4.47621e+01,    2.85910e+01
   1.73000e+03,    4.41025e+00,    4.45288e+01,    2.86166e+01
   1.74000e+03,    4.41678e+00,    4.42983e+01,    2.86420e+01
   1.75000e+03,    4.42328e+00,    4.40704e+01,    2.86673e+01
   1.76000e+03,    4.42975e+00,    4.38452e+01,    2.86926e+01
   1.77000e+03,    4.43619e+00,    4.36225e+01,    2.87177e+01
   1.78000e+03,    4.44260e+00,    4.34024e+01,    2.87427e+01
   1.79000e+03,    4.44898e+00,    4.31847e+01,    2.87676e+01
   1.80000e+03,    4.45532e+00,    4.29696e+01,    2.87924e+01
   1.81000e+03,    4.46164e+00,    4.27568e+01,    2.88171e+01
   1.82000e+03,    4.46793e+00,    4.25464e+01,    2.88417e+01
   1.83000e+03,    4.47418e+00,    4.23383e+01,    2.88662e+01
   1.84000e+03,    4.48041e+00,    4.21326e+01,    2.88906e+01
   1.85000e+03,    4.48660e+00,    4.19291e+01,    2.89149e+01
   1.86000e+03,    4.49276e+00,    4.17278e+01,    2.89391e+01
   1.87000e+03,    4.49889e+00,    4.15287e+01,    2.89632e+01
   1.88000e+03,    4.50499e+00,    4.13317e+01,    2.89872e+01
   1.89000e+03,    4.51105e+00,    4.11369e+01,    2.90111e+01
   1.90000e+03,    4.51709e+00,    4.09441e+01,    2.90349e+01
   1.91000e+03,    4.52309e+00,    4.07534e+01,    2.90587e+01
   1.92000e+03,    4.52907e+00,    4.05648e+01,    2.90823e+01
   1.93000e+03,    4.53501e+00,    4.03781e+01,    2.91059e+01
   1.94000e+03,    4.54092e+00,    4.01933e+01,    2.91293e+01
   1.95000e+03,    4.54679e+00,    4.00105e+01,    2.91527e+01
   1.96000e+03,    4.55264e+00,    3.98296e+01,    2.91759e+01
   1.97000e+03,    4.55845e+00,    3.96505e+01,    2.91991e+01
   1.98000e+03,    4.56423e+00,    3.94733e+01,    2.92222e+01
   1.99000e+03,    4.56999e+00,    3.92979e+01,    2.92452e+01
   2.00000e+03,    4.57570e+00,    3.91243e+01,    2.92681e+01
   2.01000e+03,    4.58139e+00,    3.89524e+01,    2.92910e+01
   2.02000e+03,    4.58705e+00,    3.87823e+01,    2.93137e+01
   2.03000e+03,    4.59267e+00,    3.86138e+01,    2.93364e+01
   2.04000e+03,    4.59826e+00,    3.84471e+01,    2.93590e+01
   2.05000e+03,    4.60382e+00,    3.82820e+01,    2.93815e+01
   2.06000e+03,    4.60935e+00,    3.81185e+01,    2.94039e+01
   2.07000e+03,    4.61485e+00,    3.79566e+01,    2.94262e+01
   2.08000e+03,    4.62032e+00,    3.77963e+01,    2.94485e+01
   2.09000e+03,    4.62575e+00,    3.76376e+01,    2.94707e+01
   2.10000e+03,    4.63115e+00,    3.74804e+01,    2.94928e+01
   2.11000e+03,    4.63652e+00,    3.73248e+01,    2.95148e+01
   2.12000e+03,    4.64187e+00,    3.71706e+01,    2.95367e+01
   2.13000e+03,    4.64717e+00,    3.70179e+01,    2.95586e+01
   2.14000e+03,    4.65245e+00,    3.68666e+01,    2.95803e+01
   2.15000e+03,    4.65770e+00,    3.67168e+01,    2.96020e+01
   2.16000e+03,    4.66292e+00,    3.65684e+01,    2.96237e+01
   2.17000e+03,    4.66810e+00,    3.64214e+01,    2.96452e+01
   2.18000e+03,    4.67326e+00,    3.62757e+01,    2.96667e+01
   2.19000e+03,    4.67838e+00,    3.61314e+01,    2.96881e+01
   2.20000e+03,    4.68347e+00,    3.59885e+01,    2.97094e+01
   2.21000e+03,    4.68854e+00,    3.58468e+01,    2.97307e+01
   2.22000e+03,    4.69357e+00,    3.57065e+01,    2.97518e+01
   2.23000e+03,    4.69857e+00,    3.55674e+01,    2.97730e+01
   2.24000e+03,    4.70354e+00,    3.54296e+01,    2.97940e+01
   2.25000e+03,    4.70848e+00,    3.52931e+01,    2.98149e+01
   2.26000e+03,    4.71339e+00,    3.51578e+01,    2.98358e+01
   2.27000e+03,    4.71827e+00,    3.50237e+01,    2.98567e+01
   2.28000e+03,    4.72313e+00,    3.48908e+01,    2.98774e+01
   2.29000e+03,    4.72795e+00,    3.47590e+01,    2.98981e+01
   2.30000e+03,    4.73274e+00,    3.46285e+01,    2.99187e+01
   2.31000e+03,    4.73750e+00,    3.44991e+01,    2.99392e+01
   2.32000e+03,    4.74224e+00,    3.43708e+01,    2.99597e+01
   2.33000e+03,    4.74694e+00,    3.42436e+01,    2.99801e+01
   2.34000e+03,    4.75162e+00,    3.41176e+01,    3.00005e+01
   2.35000e+03,    4.75626e+00,    3.39926e+01,    3.00207e+01
   2.36000e+03,    4.76088e+00,    3.38688e+01,    3.00409e+01
   2.37000e+03,    4.76547e+00,    3.37460e+01,    3.00611e+01
   2.38000e+03,    4.77003e+00,    3.36242e+01,    3.00812e+01
   2.39000e+03,    4.77456e+00,    3.35035e+01,    3.01012e+01
   2.40000e+03,    4.77907e+00,    3.33838e+01,    3.01211e+01
   2.41000e+03,    4.78354e+00,    3.32651e+01,    3.01410e+01
   2.42000e+03,    4.78799e+00,    3.31474e+01,    3.01608e+01
   2.43000e+03,    4.79241e+00,    3.30307e+01,    3.01806e+01
   2.44000e+03,    4.79681e+00,    3.29150e+01,    3.02003e+01
   2.45000e+03,    4.80117e+00,    3.28002e+01,    3.02199e+01
   2.46000e+03,    4.80551e+00,    3.26864e+01,    3.02394e+01
   2.47000e+03,    4.80982e+00,    3.25736e+01,    3.02590e+01
   2.48000e+03,    4.81410e+00,    3.24616e+01,    3.02784e+01
   2.49000e+03,    4.81836e+00,    3.23506e+01,    3.02978e+01
   2.50000e+03,    4.82259e+00,    3.22405e+01,    3.03171e+01
   2.51000e+03,    4.82680e+00,    3.21313e+01,    3.03364e+01
   2.52000e+03,    4.83098e+00,    3.20229e+01,    3.03556e+01
   2.53000e+03,    4.83513e+00,    3.19154e+01,    3.03747e+01
   2.54000e+03,    4.83925e+00,    3.18088e+01,    3.03938e+01
   2.55000e+03,    4.84335e+00,    3.17031e+01,    3.04128e+01
   2.56000e+03,    4.84743e+00,    3.15982e+01,    3.04318e+01
   2.57000e+03,    4.85148e+00,    3.14941e+01,    3.04507e+01
   2.58000e+03,    4.85550e+00,    3.13908e+01,    3.04695e+01
   2.59000e+03,    4.85950e+00,    3.12884e+01,    3.04883e+01
   2.60000e+03,    4.86347e+00,    3.11867e+01,    3.05070e+01
   2.61000e+03,    4.86742e+00,    3.10859e+01,    3.05257e+01
   2.62000e+03,    4.87134e+00,    3.09858e+01,    3.05443e+01
   2.63000e+03,    4.87524e+00,    3.08865e+01,    3.05629e+01
   2.64000e+03,    4.87912e+00,    3.07880e+01,    3.05814e+01
   2.65000e+03,    4.88297e+00,    3.06903e+01,    3.05999e+01
   2.66000e+03,    4.88680e+00,    3.05932e+01,    3.06183e+01
   2.67000e+03,    4.89060e+00,    3.04970e+01,    3.06366e+01
   2.68000e+03,    4.89438e+00,    3.04014e+01,    3.06549e+01
   2.69000e+03,    4.89813e+00,    3.03066e+01,    3.06731e+01
   2.70000e+03,    4.90187e+00,    3.02125e+01,    3.06913e+01
   2.71000e+03,    4.90557e+00,    3.01191e+01,    3.07095e+01
   2.72000e+03,    4.90926e+00,    3.00264e+01,    3.07275e+01
   2.73000e+03,    4.91292e+00,    2.99344e+01,    3.07455e+01
   2.74000e+03,    4.91656e+00,    2.98431e+01,    3.07635e+01
   2.75000e+03,    4.92018e+00,    2.97525e+01,    3.07814e+01
   2.76000e+03,    4.92378e+00,    2.96625e+01,    3.07993e+01
   2.77000e+03,    4.92735e+00,    2.95732e+01,    3.08171e+01
   2.78000e+03,    4.93090e+00,    2.94846e+01,    3.08349e+01
   2.79000e+03,    4.93443e+00,    2.93966e+01,    3.08526e+01
   2.80000e+03,    4.93794e+00,    2.93092e+01,    3.08703e+01
   2.81000e+03,    4.94142e+00,    2.92225e+01,    3.08879e+01
   2.82000e+03,    4.94489e+00,    2.91364e+01,    3.09054e+01
   2.83000e+03,    4.94833e+00,    2.90509e+01,    3.09229e+01
   2.84000e+03,    4.95175e+00,    2.89661e+01,    3.09404e+01
   2.85000e+03,    4.95515e+00,    2.88818e+01,    3.09578e+01
   2.86000e+03,    4.95853e+00,    2.87982e+01,    3.09752e+01
   2.87000e+03,    4.96189e+00,    2.87151e+01,    3.09925e+01
   2.88000e+03,    4.96523e+00,    2.86326e+01,    3.10097e+01
   2.89000e+03,    4.96854e+00,    2.85507e+01,    3.10270e+01
   2.90000e+03,    4.97184e+00,    2.84694e+01,    3.10441e+01
   2.91000e+03,    4.97512e+00,    2.83887e+01,    3.10612e+01
   2.92000e+03,    4.97837e+00,    2.83085e+01,    3.10783e+01
   2.93000e+03,    4.98161e+00,    2.82289e+01,    3.10953e+01
   2.94000e+03,    4.98483e+00,    2.81498e+01,    3.11123e+01
   2.95000e+03,    4.98802e+00,    2.80713e+01,    3.11293e+01
   2.96000e+03,    4.99120e+00,    2.79933e+01,    3.11461e+01
   2.97000e+03,    4.99436e+00,    2.79159e+01,    3.11630e+01
   2.98000e+03,    4.99750e+00,    2.78390e+01,    3.11798e+01
   2.99000e+03,    5.00061e+00,    2.77626e+01,    3.11965e+01
   3.00000e+03,    5.00371e+00,    2.76867e+01,    3.12132e+01
   3.01000e+03,    5.00679e+00,    2.76114e+01,    3.12299e+01
   3.02000e+03,    5.00986e+00,    2.75365e+01,    3.12465e+01
   3.03000e+03,    5.01290e+00,    2.74622e+01,    3.12631e+01
   3.04000e+03,    5.01592e+00,    2.73883e+01,    3.12796e+01
   3.05000e+03,    5.01893e+00,    2.73150e+01,    3.12961e+01
   3.06000e+03,    5.02192e+00,    2.72421e+01,    3.13125e+01
   3.07000e+03,    5.02489e+00,    2.71698e+01,    3.13289e+01
   3.08000e+03,    5.02784e+00,    2.70979e+01,    3.13452e+01
   3.09000e+03,    5.03077e+00,    2.70264e+01,    3.13615e+01
   3.10000e+03,    5.03368e+00,    2.69555e+01,    3.13778e+01
   3.11000e+03,    5.03658e+00,    2.68850e+01,    3.13940e+01
   3.12000e+03,    5.03946e+00,    2.68150e+01,    3.14102e+01
   3.13000e+03,    5.04232e+00,    2.67454e+01,    3.14263e+01
   3.14000e+03,    5.04516e+00,    2.66763e+01,    3.14424e+01
   3.15000e+03,    5.04799e+00,    2.66076e+01,    3.14584e+01
   3.16000e+03,    5.05079e+00,    2.65394e+01,    3.14744e+01
   3.17000e+03,    5.05358e+00,    2.64716e+01,    3.14904e+01
   3.18000e+03,    5.05636e+00,    2.64043e+01,    3.15063e+01
   3.19000e+03,    5.05911e+00,    2.63374e+01,    3.15222e+01
   3.20000e+03,    5.06185e+00,    2.62709e+01,    3.15381e+01
   3.21000e+03,    5.06457e+00,    2.62048e+01,    3.15538e+01
   3.22000e+03,    5.06727e+00,    2.61392e+01,    3.15696e+01
   3.23000e+03,    5.06996e+00,    2.60739e+01,    3.15853e+01
   3.24000e+03,    5.07263e+00,    2.60091e+01,    3.16010e+01
   3.25000e+03,    5.07528e+00,    2.59447e+01,    3.16166e+01
   3.26000e+03,    5.07792e+00,    2.58807e+01,    3.16322e+01
   3.27000e+03,    5.08054e+00,    2.58171e+01,    3.16478e+01
   3.28000e+03,    5.08314e+00,    2.57538e+01,    3.16633e+01
   3.29000e+03,    5.08573e+00,    2.56910e+01,    3.16788e+01
   3.30000e+03,    5.08829e+00,    2.56286e+01,    3.16942e+01
   3.31000e+03,    5.09085e+00,    2.55665e+01,    3.17096e+01
   3.32000e+03,    5.09338e+00,    2.55049e+01,    3.17250e+01
   3.33000e+03,    5.09590e+00,    2.54436e+01,    3.17403e+01
   3.34000e+03,    5.09840e+00,    2.53827e+01,    3.17556e+01
   3.35000e+03,    5.10089e+00,    2.53221e+01,    3.17708e+01
   3.36000e+03,    5.10336e+00,    2.52619e+01,    3.17860e+01
   3.37000e+03,    5.10581e+00,    2.52021e+01,    3.18012e+01
   3.38000e+03,    5.10825e+00,    2.51427e+01,    3.18163e+01
   3.39000e+03,    5.11067e+00,    2.50836e+01,    3.18314e+01
   3.40000e+03,    5.11307e+00,    2.50248e+01,    3.18465e+01
   3.41000e+03,    5.11546e+00,    2.49664e+01,    3.18615e+01
   3.42000e+03,    5.11783e+00,    2.49084e+01,    3.18765e+01
   3.43000e+03,    5.12019e+00,    2.48507e+01,    3.18914e+01
   3.44000e+03,    5.12253e+00,    2.47933e+01,    3.19064e+01
   3.45000e+03,    5.12485e+00,    2.47363e+01,    3.19212e+01
   3.46000e+03,    5.12716e+00,    2.46797e+01,    3.19361e+01
   3.47000e+03,    5.12945e+00,    2.46233e+01,    3.19509e+01
   3.48000e+03,    5.13172e+00,    2.45673e+01,    3.19656e+01
   3.49000e+03,    5.13398e+00,    2.45116e+01,    3.19804e+01
   3.50000e+03,    5.13622e+00,    2.44563e+01,    3.19950e+01
   3.51000e+03,    5.13845e+00,    2.44012e+01,    3.20097e+01
   3.52000e+03,    5.14066e+00,    2.43465e+01,    3.20243e+01
   3.53000e+03,    5.14285e+00,    2.42921e+01,    3.20389e+01
   3.54000e+03,    5.14503e+00,    2.42380e+01,    3.20535e+01
   3.55000e+03,    5.14719e+00,    2.41842e+01,    3.20680e+01
   3.56000e+03,    5.14934e+00,    2.41307e+01,    3.20825e+01
   3.57000e+03,    5.15147e+00,    2.40776e+01,    3.20969e+01
   3.58000e+03,    5.15358e+00,    2.40247e+01,    3.21113e+01
   3.59000e+03,    5.15568e+00,    2.39722e+01,    3.21257e+01
   3.60000e+03,    5.15776e+00,    2.39199e+01,    3.21400e+01
   3.61000e+03,    5.15983e+00,    2.38679e+01,    3.21544e+01
   3.62000e+03,    5.16187e+00,    2.38162e+01,    3.21686e+01
   3.63000e+03,    5.16391e+00,    2.37649e+01,    3.21829e+01
   3.64000e+03,    5.16592e+00,    2.37138e+01,    3.21971e+01
   3.65000e+03,    5.16792e+00,    2.36629e+01,    3.22113e+01
   3.66000e+03,    5.16991e+00,    2.36124e+01,    3.22254e+01
   3.67000e+03,    5.17188e+00,    2.35622e+01,    3.22395e+01
   3.68000e+03,    5.17383e+00,    2.35122e+01,    3.22536e+01
   3.69000e+03,    5.17576e+00,    2.34625e+01,    3.22676e+01
   3.70000e+03,    5.17768e+00,    2.34131e+01,    3.22816e+01
   3.71000e+03,    5.17959e+00,    2.33639e+01,    3.22956e+01
   3.72000e+03,    5.18147e+00,    2.33150e+01,    3.23096e+01
   3.73000e+03,    5.18334e+00,    2.32664e+01,    3.23235e+01
   3.74000e+03,    5.18520e+00,    2.32181e+01,    3.23374e+01
   3.75000e+03,    5.18704e+00,    2.31700e+01,    3.23512e+01
   3.76000e+03,    5.18886e+00,    2.31222e+01,    3.23650e+01
   3.77000e+03,    5.19066e+00,    2.30746e+01,    3.23788e+01
   3.78000e+03,    5.19245e+00,    2.30273e+01,    3.23926e+01
   3.79000e+03,    5.19422e+00,    2.29802e+01,    3.24063e+01
   3.80000e+03,    5.19598e+00,    2.29334e+01,    3.24200e+01
   3.81000e+03,    5.19772e+00,    2.28869e+01,    3.24336e+01
   3.82000e+03,    5.19944e+00,    2.28406e+01,    3.24472e+01
   3.83000e+03,    5.20114e+00,    2.27945e+01,    3.24608e+01
   3.84000e+03,    5.20283e+00,    2.27487e+01,    3.24744e+01
   3.85000e+03,    5.20451e+00,    2.27031e+01,    3.24879e+01
   3.86000e+03,    5.20616e+00,    2.26578e+01,    3.25014e+01
   3.87000e+03,    5.20780e+00,    2.26127e+01,    3.25149e+01
   3.88000e+03,    5.20942e+00,    2.25679e+01,    3.25284e+01
   3.89000e+03,    5.21103e+00,    2.25232e+01,    3.25418e+01
   3.90000e+03,    5.21262e+00,    2.24789e+01,    3.25552e+01
   3.91000e+03,    5.21419e+00,    2.24347e+01,    3.25685e+01
   3.92000e+03,    5.21574e+00,    2.23908e+01,    3.25818e+01
   3.93000e+03,    5.21728e+00,    2.23471e+01,    3.25951e+01
   3.94000e+03,    5.21880e+00,    2.23036e+01,    3.26084e+01
   3.95000e+03,    5.22030e+00,    2.22603e+01,    3.26216e+01
   3.96000e+03,    5.22179e+00,    2.22173e+01,    3.26348e+01
   3.97000e+03,    5.22326e+00,    2.21745e+01,    3.26480e+01
   3.98000e+03,    5.22471e+00,    2.21319e+01,    3.26611e+01
   3.99000e+03,    5.22614e+00,    2.20895e+01,    3.26742e+01
   4.00000e+03,    5.22756e+00,    2.20474e+01,    3.26873e+01
   4.01000e+03,    5.22896e+00,    2.20054e+01,    3.27004e+01
   4.02000e+03,    5.23034e+00,    2.19637e+01,    3.27134e+01
   4.03000e+03,    5.23171e+00,    2.19222e+01,    3.27264e+01
   4.04000e+03,    5.23305e+00,    2.18809e+01,    3.27394e+01
   4.05000e+03,    5.23438e+00,    2.18398e+01,    3.27523e+01
   4.06000e+03,    5.23570e+00,    2.17989e+01,    3.27652e+01
   4.07000e+03,    5.23699e+00,    2.17582e+01,    3.27781e+01
   4.08000e+03,    5.23827e+00,    2.17177e+01,    3.27909e+01
   4.09000e+03,    5.23953e+00,    2.16774e+01,    3.28038e+01
   4.10000e+03,    5.24077e+00,    2.16373e+01,    3.28166e+01
   4.11000e+03,    5.24200e+00,    2.15974e+01,    3.28293e+01
   4.12000e+03,    5.24320e+00,    2.15577e+01,    3.28421e+01
   4.13000e+03,    5.24439e+00,    2.15182e+01,    3.28548e+01
   4.14000e+03,    5.24556e+00,    2.14789e+01,    3.28675e+01
   4.15000e+03,    5.24671e+00,    2.14398e+01,    3.28801e+01
   4.16000e+03,    5.24785e+00,    2.14009e+01,    3.28928e+01
   4.17000e+03,    5.24897e+00,    2.13621e+01,    3.29054e+01
   4.18000e+03,    5.25006e+00,    2.13236e+01,    3.29179e+01
   4.19000e+03,    5.25114e+00,    2.12852e+01,    3.29305e+01
   4.20000e+03,    5.25221e+00,    2.12471e+01,    3.29430e+01
   4.21000e+03,    5.25325e+00,    2.12091e+01,    3.29555e+01
   4.22000e+03,    5.25428e+00,    2.11713e+01,    3.29679e+01
   4.23000e+03,    5.25528e+00,    2.11336e+01,    3.29804e+01
   4.24000e+03,    5.25627e+00,    2.10962e+01,    3.29928e+01
   4.25000e+03,    5.25724e+00,    2.10589e+01,    3.30052e+01
   4.26000e+03,    5.25820e+00,    2.10218e+01,    3.30175e+01
   4.27000e+03,    5.25913e+00,    2.09849e+01,    3.30299e+01
   4.28000e+03,    5.26005e+00,    2.09482e+01,    3.30422e+01
   4.29000e+03,    5.26094e+00,    2.09116e+01,    3.30544e+01
   4.30000e+03,    5.26182e+00,    2.08752e+01,    3.30667e+01
   4.31000e+03,    5.26268e+00,    2.08390e+01,    3.30789e+01
   4.32000e+03,    5.26353e+00,    2.08029e+01,    3.30911e+01
   4.33000e+03,    5.26435e+00,    2.07670e+01,    3.31033e+01
   4.34000e+03,    5.26515e+00,    2.07313e+01,    3.31154e+01
   4.35000e+03,    5.26594e+00,    2.06958e+01,    3.31276e+01
   4.36000e+03,    5.26670e+00,    2.06604e+01,    3.31396e+01
   4.37000e+03,    5.26745e+00,    2.06251e+01,    3.31517e+01
   4.38000e+03,    5.26818e+00,    2.05901e+01,    3.31638e+01
   4.39000e+03,    5.26889e+00,    2.05552e+01,    3.31758e+01
   4.40000e+03,    5.26958e+00,    2.05204e+01,    3.31878e+01
   4.41000e+03,    5.27026e+00,    2.04859e+01,    3.31997e+01
   4.42000e+03,    5.27091e+00,    2.04514e+01,    3.32117e+01
   4.43000e+03,    5.27154e+00,    2.04172e+01,    3.32236e+01
   4.44000e+03,    5.27216e+00,    2.03831e+01,    3.32355e+01
   4.45000e+03,    5.27276e+00,    2.03491e+01,    3.32473e+01
   4.46000e+03,    5.27333e+00,    2.03153e+01,    3.32592e+01
   4.47000e+03,    5.27389e+00,    2.02816e+01,    3.32710e+01
   4.48000e+03,    5.27443e+00,    2.02482e+01,    3.32828e+01
   4.49000e+03,    5.27495e+00,    2.02148e+01,    3.32945e+01
   4.50000e+03,    5.27545e+00,    2.01816e+01,    3.33062e+01
   4.51000e+03,    5.27593e+00,    2.01486e+01,    3.33180e+01
   4.52000e+03,    5.27639e+00,    2.01156e+01,    3.33296e+01
   4.53000e+03,    5.27684e+00,    2.00829e+01,    3.33413e+01
   4.54000e+03,    5.27726e+00,    2.00503e+01,    3.33529e+01
   4.55000e+03,    5.27767e+00,    2.00178e+01,    3.33646e+01
   4.56000e+03,    5.27805e+00,    1.99855e+01,    3.33761e+01
   4.57000e+03,    5.27842e+00,    1.99533e+01,    3.33877e+01
   4.58000e+03,    5.27876e+00,    1.99213e+01,    3.33992e+01
   4.59000e+03,    5.27909e+00,    1.98894e+01,    3.34108e+01
   4.60000e+03,    5.27940e+00,    1.98576e+01,    3.34222e+01
   4.61000e+03,    5.27969e+00,    1.98260e+01,    3.34337e+01
   4.62000e+03,    5.27996e+00,    1.97945e+01,    3.34451e+01
   4.63000e+03,    5.28021e+00,    1.97631e+01,    3.34566e+01
   4.64000e+03,    5.28044e+00,    1.97319e+01,    3.34680e+01
   4.65000e+03,    5.28065e+00,    1.97009e+01,    3.34793e+01
   4.66000e+03,    5.28084e+00,    1.96699e+01,    3.34907e+01
   4.67000e+03,    5.28101e+00,    1.96391e+01,    3.35020e+01
   4.68000e+03,    5.28117e+00,    1.96084e+01,    3.35133e+01
   4.69000e+03,    5.28130e+00,    1.95779e+01,    3.35246e+01
   4.70000e+03,    5.28141e+00,    1.95475e+01,    3.35358e+01
   4.71000e+03,    5.28151e+00,    1.95172e+01,    3.35470e+01
   4.72000e+03,    5.28158e+00,    1.94870e+01,    3.35582e+01
   4.73000e+03,    5.28164e+00,    1.94570e+01,    3.35694e+01
   4.74000e+03,    5.28167e+00,    1.94271e+01,    3.35806e+01
   4.75000e+03,    5.28169e+00,    1.93973e+01,    3.35917e+01
   4.76000e+03,    5.28169e+00,    1.93676e+01,    3.36028e+01
   4.77000e+03,    5.28166e+00,    1.93381e+01,    3.36139e+01
   4.78000e+03,    5.28162e+00,    1.93087e+01,    3.36250e+01
   4.79000e+03,    5.28156e+00,    1.92794e+01,    3.36360e+01
   4.80000e+03,    5.28148e+00,    1.92502e+01,    3.36470e+01
   4.81000e+03,    5.28138e+00,    1.92212e+01,    3.36580e+01
   4.82000e+03,    5.28126e+00,    1.91923e+01,    3.36690e+01
   4.83000e+03,    5.28112e+00,    1.91635e+01,    3.36799e+01
   4.84000e+03,    5.28096e+00,    1.91348e+01,    3.36908e+01
   4.85000e+03,    5.28078e+00,    1.91062e+01,    3.37017e+01
   4.86000e+03,    5.28058e+00,    1.90778e+01,    3.37126e+01
   4.87000e+03,    5.28037e+00,    1.90495e+01,    3.37235e+01
   4.88000e+03,    5.28013e+00,    1.90212e+01,    3.37343e+01
   4.89000e+03,    5.27987e+00,    1.89931e+01,    3.37451e+01
   4.90000e+03,    5.27960e+00,    1.89652e+01,    3.37559e+01
   4.91000e+03,    5.27930e+00,    1.89373e+01,    3.37667e+01
   4.92000e+03,    5.27899e+00,    1.89095e+01,    3.37774e+01
   4.93000e+03,    5.27866e+00,    1.88819e+01,    3.37881e+01
   4.94000e+03,    5.27830e+00,    1.88543e+01,    3.37988e+01
   4.95000e+03,    5.27793e+00,    1.88269e+01,    3.38095e+01
   4.96000e+03,    5.27754e+00,    1.87996e+01,    3.38201e+01
   4.97000e+03,    5.27713e+00,    1.87724e+01,    3.38308e+01
   4.98000e+03,    5.27670e+00,    1.87453e+01,    3.38414e+01
   4.99000e+03,    5.27625e+00,    1.87183e+01,    3.38520e+01
   5.00000e+03,    5.27578e+00,    1.86914e+01,    3.38625e+01
   5.01000e+03,    5.27529e+00,    1.86646e+01,    3.38731e+01
   5.02000e+03,    5.27479e+00,    1.86380e+01,    3.38836e+01
   5.03000e+03,    5.27426e+00,    1.86114e+01,    3.38941e+01
   5.04000e+03,    5.27372e+00,    1.85849e+01,    3.39045e+01
   5.05000e+03,    5.27315e+00,    1.85586e+01,    3.39150e+01
   5.06000e+03,    5.27257e+00,    1.85323e+01,    3.39254e+01
   5.07000e+03,    5.27197e+00,    1.85062e+01,    3.39358e+01
   5.08000e+03,    5.27135e+00,    1.84801e+01,    3.39462e+01
   5.09000e+03,    5.27071e+00,    1.84542e+01,    3.39566e+01
   5.10000e+03,    5.27005e+00,    1.84283e+01,    3.39669e+01
   5.11000e+03,    5.26937e+00,    1.84026e+01,    3.39773e+01
   5.12000e+03,    5.26867e+00,    1.83769e+01,    3.39876e+01
   5.13000e+03,    5.26796e+00,    1.83513e+01,    3.39978e+01
   5.14000e+03,    5.26723e+00,    1.83259e+01,    3.40081e+01
   5.15000e+03,    5.26647e+00,    1.83005e+01,    3.40183e+01
   5.16000e+03,    5.26570e+00,    1.82753e+01,    3.40285e+01
   5.17000e+03,    5.26491e+00,    1.82501e+01,    3.40387e+01
   5.18000e+03,    5.26410e+00,    1.82250e+01,    3.40489e+01
   5.19000e+03,    5.26328e+00,    1.82001e+01,    3.40591e+01
   5.20000e+03,    5.26243e+00,    1.81752e+01,    3.40692e+01
   5.21000e+03,    5.26157e+00,    1.81504e+01,    3.40793e+01
   5.22000e+03,    5.26068e+00,    1.81257e+01,    3.40894e+01
   5.23000e+03,    5.25978e+00,    1.81011e+01,    3.40995e+01
   5.24000e+03,    5.25886e+00,    1.80766e+01,    3.41095e+01
   5.25000e+03,    5.25793e+00,    1.80522e+01,    3.41195e+01
   5.26000e+03,    5.25697e+00,    1.80279e+01,    3.41295e+01
   5.27000e+03,    5.25600e+00,    1.80036e+01,    3.41395e+01
   5.28000e+03,    5.25500e+00,    1.79795e+01,    3.41495e+01
   5.29000e+03,    5.25399e+00,    1.79554e+01,    3.41594e+01
   5.30000e+03,    5.25297e+00,    1.79315e+01,    3.41694e+01
   5.31000e+03,    5.25192e+00,    1.79076e+01,    3.41793e+01
   5.32000e+03,    5.25086e+00,    1.78838e+01,    3.41891e+01
   5.33000e+03,    5.24977e+00,    1.78601e+01,    3.41990e+01
   5.34000e+03,    5.24867e+00,    1.78365e+01,    3.42088e+01
   5.35000e+03,    5.24756e+00,    1.78130e+01,    3.42187e+01
   5.36000e+03,    5.24642e+00,    1.77895e+01,    3.42284e+01
   5.37000e+03,    5.24527e+00,    1.77661e+01,    3.42382e+01
   5.38000e+03,    5.24410e+00,    1.77429e+01,    3.42480e+01
   5.39000e+03,    5.24291e+00,    1.77197e+01,    3.42577e+01
   5.40000e+03,    5.24170e+00,    1.76966e+01,    3.42674e+01
   5.41000e+03,    5.24048e+00,    1.76736e+01,    3.42771e+01
   5.42000e+03,    5.23924e+00,    1.76506e+01,    3.42868e+01
   5.43000e+03,    5.23798e+00,    1.76278e+01,    3.42965e+01
   5.44000e+03,    5.23671e+00,    1.76050e+01,    3.43061e+01
   5.45000e+03,    5.23541e+00,    1.75823e+01,    3.43157e+01
   5.46000e+03,    5.23411e+00,    1.75597e+01,    3.43253e+01
   5.47000e+03,    5.23278e+00,    1.75371e+01,    3.43349e+01
   5.48000e+03,    5.23144e+00,    1.75147e+01,    3.43445e+01
   5.49000e+03,    5.23007e+00,    1.74923e+01,    3.43540e+01
   5.50000e+03,    5.22870e+00,    1.74700e+01,    3.43635e+01
   5.51000e+03,    5.22730e+00,    1.74478e+01,    3.43730e+01
   5.52000e+03,    5.22589e+00,    1.74257e+01,    3.43825e+01
   5.53000e+03,    5.22447e+00,    1.74036e+01,    3.43919e+01
   5.54000e+03,    5.22302e+00,    1.73816e+01,    3.44014e+01
   5.55000e+03,    5.22156e+00,    1.73597e+01,    3.44108e+01
   5.56000e+03,    5.22008e+00,    1.73379e+01,    3.44202e+01
   5.57000e+03,    5.21859e+00,    1.73161e+01,    3.44296e+01
   5.58000e+03,    5.21708e+00,    1.72944e+01,    3.44389e+01
   5.59000e+03,    5.21556e+00,    1.72728e+01,    3.44483e+01
   5.60000e+03,    5.21401e+00,    1.72513e+01,    3.44576e+01
   5.61000e+03,    5.21246e+00,    1.72298e+01,    3.44669e+01
   5.62000e+03,    5.21088e+00,    1.72084e+01,    3.44762e+01
   5.63000e+03,    5.20929e+00,    1.71871e+01,    3.44854e+01
   5.64000e+03,    5.20769e+00,    1.71659e+01,    3.44947e+01
   5.65000e+03,    5.20606e+00,    1.71447e+01,    3.45039e+01
   5.66000e+03,    5.20443e+00,    1.71236e+01,    3.45131e+01
   5.67000e+03,    5.20277e+00,    1.71026e+01,    3.45223e+01
   5.68000e+03,    5.20110e+00,    1.70817e+01,    3.45315e+01
   5.69000e+03,    5.19942e+00,    1.70608e+01,    3.45406e+01
   5.70000e+03,    5.19772e+00,    1.70400e+01,    3.45497e+01
   5.71000e+03,    5.19600e+00,    1.70192e+01,    3.45588e+01
   5.72000e+03,    5.19427e+00,    1.69986e+01,    3.45679e+01
   5.73000e+03,    5.19253e+00,    1.69780e+01,    3.45770e+01
   5.74000e+03,    5.19077e+00,    1.69574e+01,    3.45861e+01
   5.75000e+03,    5.18899e+00,    1.69370e+01,    3.45951e+01
   5.76000e+03,    5.18720e+00,    1.69166e+01,    3.46041e+01
   5.77000e+03,    5.18540e+00,    1.68962e+01,    3.46131e+01
   5.78000e+03,    5.18358e+00,    1.68760e+01,    3.46221e+01
   5.79000e+03,    5.18174e+00,    1.68558e+01,    3.46310e+01
   5.80000e+03,    5.17989e+00,    1.68356e+01,    3.46400e+01
   5.81000e+03,    5.17803e+00,    1.68156e+01,    3.46489e+01
   5.82000e+03,    5.17615e+00,    1.67956e+01,    3.46578e+01
   5.83000e+03,    5.17425e+00,    1.67756e+01,    3.46667e+01
   5.84000e+03,    5.17235e+00,    1.67558e+01,    3.46756e+01
   5.85000e+03,    5.17042e+00,    1.67360e+01,    3.46844e+01
   5.86000e+03,    5.16849e+00,    1.67162e+01,    3.46932e+01
   5.87000e+03,    5.16654e+00,    1.66966e+01,    3.47020e+01
   5.88000e+03,    5.16457e+00,    1.66770e+01,    3.47108e+01
   5.89000e+03,    5.16260e+00,    1.66574e+01,    3.47196e+01
   5.90000e+03,    5.16061e+00,    1.66379e+01,    3.47284e+01
   5.91000e+03,    5.15860e+00,    1.66185e+01,    3.47371e+01
   5.92000e+03,    5.15658e+00,    1.65991e+01,    3.47458e+01
   5.93000e+03,    5.15455e+00,    1.65798e+01,    3.47545e+01
   5.94000e+03,    5.15250e+00,    1.65606e+01,    3.47632e+01
   5.95000e+03,    5.15044e+00,    1.65414e+01,    3.47719e+01
   5.96000e+03,    5.14837e+00,    1.65223e+01,    3.47805e+01
   5.97000e+03,    5.14628e+00,    1.65033e+01,    3.47891e+01
   5.98000e+03,    5.14418e+00,    1.64843e+01,    3.47978e+01
   5.99000e+03,    5.14207e+00,    1.64653e+01,    3.48064e+01
   6.00000e+03,    5.13995e+00,    1.64465e+01,    3.48149e+01
   6.01000e+03,    5.13781e+00,    1.64276e+01,    3.48235e+01
   6.02000e+03,    5.13566e+00,    1.64089e+01,    3.48320e+01
   6.03000e+03,    5.13349e+00,    1.63902e+01,    3.48405e+01
   6.04000e+03,    5.13132e+00,    1.63716e+01,    3.48490e+01
   6.05000e+03,    5.12913e+00,    1.63530e+01,    3.48575e+01
   6.06000e+03,    5.12693e+00,    1.63345e+01,    3.48660e+01
   6.07000e+03,    5.12471e+00,    1.63160e+01,    3.48745e+01
   6.08000e+03,    5.12249e+00,    1.62976e+01,    3.48829e+01
   6.09000e+03,    5.12025e+00,    1.62792e+01,    3.48913e+01
   6.10000e+03,    5.11800e+00,    1.62609e+01,    3.48997e+01
   6.11000e+03,    5.11573e+00,    1.62427e+01,    3.49081e+01
   6.12000e+03,    5.11346e+00,    1.62245e+01,    3.49165e+01
   6.13000e+03,    5.11117e+00,    1.62064e+01,    3.49248e+01
   6.14000e+03,    5.10888e+00,    1.61883e+01,    3.49331e+01
   6.15000e+03,    5.10657e+00,    1.61703e+01,    3.49414e+01
   6.16000e+03,    5.10425e+00,    1.61523e+01,    3.49497e+01
   6.17000e+03,    5.10191e+00,    1.61344e+01,    3.49580e+01
   6.18000e+03,    5.09957e+00,    1.61166e+01,    3.49663e+01
   6.19000e+03,    5.09721e+00,    1.60988e+01,    3.49745e+01
   6.20000e+03,    5.09485e+00,    1.60810e+01,    3.49827e+01
   6.21000e+03,    5.09247e+00,    1.60633e+01,    3.49910e+01
   6.22000e+03,    5.09008e+00,    1.60457e+01,    3.49991e+01
   6.23000e+03,    5.08768e+00,    1.60281e+01,    3.50073e+01
   6.24000e+03,    5.08527e+00,    1.60106e+01,    3.50155e+01
   6.25000e+03,    5.08285e+00,    1.59931e+01,    3.50236e+01
   6.26000e+03,    5.08041e+00,    1.59757e+01,    3.50317e+01
   6.27000e+03,    5.07797e+00,    1.59583e+01,    3.50398e+01
   6.28000e+03,    5.07552e+00,    1.59409e+01,    3.50479e+01
   6.29000e+03,    5.07305e+00,    1.59237e+01,    3.50560e+01
   6.30000e+03,    5.07058e+00,    1.59064e+01,    3.50641e+01
   6.31000e+03,    5.06810e+00,    1.58893e+01,    3.50721e+01
   6.32000e+03,    5.06560e+00,    1.58721e+01,    3.50801e+01
   6.33000e+03,    5.06310e+00,    1.58551e+01,    3.50881e+01
   6.34000e+03,    5.06058e+00,    1.58381e+01,    3.50961e+01
   6.35000e+03,    5.05806e+00,    1.58211e+01,    3.51041e+01
   6.36000e+03,    5.05552e+00,    1.58042e+01,    3.51121e+01
   6.37000e+03,    5.05298e+00,    1.57873e+01,    3.51200e+01
   6.38000e+03,    5.05042e+00,    1.57704e+01,    3.51279e+01
   6.39000e+03,    5.04786e+00,    1.57537e+01,    3.51358e+01
   6.40000e+03,    5.04529e+00,    1.57369e+01,    3.51437e+01
   6.41000e+03,    5.04270e+00,    1.57203e+01,    3.51516e+01
   6.42000e+03,    5.04011e+00,    1.57036e+01,    3.51595e+01
   6.43000e+03,    5.03751e+00,    1.56870e+01,    3.51673e+01
   6.44000e+03,    5.03490e+00,    1.56705e+01,    3.51751e+01
   6.45000e+03,    5.03228e+00,    1.56540e+01,    3.51829e+01
   6.46000e+03,    5.02965e+00,    1.56376e+01,    3.51907e+01
   6.47000e+03,    5.02702e+00,    1.56212e+01,    3.51985e+01
   6.48000e+03,    5.02437e+00,    1.56048e+01,    3.52063e+01
   6.49000e+03,    5.02172e+00,    1.55885e+01,    3.52140e+01
   6.50000e+03,    5.01905e+00,    1.55723e+01,    3.52217e+01
   6.51000e+03,    5.01638e+00,    1.55560e+01,    3.52295e+01
   6.52000e+03,    5.01370e+00,    1.55399e+01,    3.52372e+01
   6.53000e+03,    5.01101e+00,    1.55238e+01,    3.52448e+01
   6.54000e+03,    5.00831e+00,    1.55077e+01,    3.52525e+01
   6.55000e+03,    5.00561e+00,    1.54916e+01,    3.52602e+01
   6.56000e+03,    5.00290e+00,    1.54757e+01,    3.52678e+01
   6.57000e+03,    5.00017e+00,    1.54597e+01,    3.52754e+01
   6.58000e+03,    4.99745e+00,    1.54438e+01,    3.52830e+01
   6.59000e+03,    4.99471e+00,    1.54280e+01,    3.52906e+01
   6.60000e+03,    4.99196e+00,    1.54122e+01,    3.52982e+01
   6.61000e+03,    4.98921e+00,    1.53964e+01,    3.53057e+01
   6.62000e+03,    4.98645e+00,    1.53807e+01,    3.53133e+01
   6.63000e+03,    4.98368e+00,    1.53650e+01,    3.53208e+01
   6.64000e+03,    4.98091e+00,    1.53493e+01,    3.53283e+01
   6.65000e+03,    4.97812e+00,    1.53338e+01,    3.53358e+01
   6.66000e+03,    4.97533e+00,    1.53182e+01,    3.53433e+01
   6.67000e+03,    4.97254e+00,    1.53027e+01,    3.53507e+01
   6.68000e+03,    4.96973e+00,    1.52872e+01,    3.53582e+01
   6.69000e+03,    4.96692e+00,    1.52718e+01,    3.53656e+01
   6.70000e+03,    4.96410e+00,    1.52564e+01,    3.53730e+01
   6.71000e+03,    4.96128e+00,    1.52411e+01,    3.53804e+01
   6.72000e+03,    4.95845e+00,    1.52258e+01,    3.53878e+01
   6.73000e+03,    4.95561e+00,    1.52105e+01,    3.53952e+01
   6.74000e+03,    4.95276e+00,    1.51953e+01,    3.54025e+01
   6.75000e+03,    4.94991e+00,    1.51801e+01,    3.54099e+01
   6.76000e+03,    4.94705e+00,    1.51650e+01,    3.54172e+01
   6.77000e+03,    4.94419e+00,    1.51499e+01,    3.54245e+01
   6.78000e+03,    4.94132e+00,    1.51348e+01,    3.54318e+01
   6.79000e+03,    4.93844e+00,    1.51198e+01,    3.54391e+01
   6.80000e+03,    4.93556e+00,    1.51049e+01,    3.54464e+01
   6.81000e+03,    4.93267e+00,    1.50899e+01,    3.54536e+01
   6.82000e+03,    4.92977e+00,    1.50750e+01,    3.54608e+01
   6.83000e+03,    4.92687e+00,    1.50602e+01,    3.54681e+01
   6.84000e+03,    4.92397e+00,    1.50453e+01,    3.54753e+01
   6.85000e+03,    4.92105e+00,    1.50306e+01,    3.54825e+01
   6.86000e+03,    4.91813e+00,    1.50158e+01,    3.54896e+01
   6.87000e+03,    4.91521e+00,    1.50011e+01,    3.54968e+01
   6.88000e+03,    4.91228e+00,    1.49865e+01,    3.55040e+01
   6.89000e+03,    4.90935e+00,    1.49718e+01,    3.55111e+01
   6.90000e+03,    4.90640e+00,    1.49573e+01,    3.55182e+01
   6.91000e+03,    4.90346e+00,    1.49427e+01,    3.55253e+01
   6.92000e+03,    4.90051e+00,    1.49282e+01,    3.55324e+01
   6.93000e+03,    4.89755e+00,    1.49137e+01,    3.55395e+01
   6.94000e+03,    4.89459e+00,    1.48993e+01,    3.55465e+01
   6.95000e+03,    4.89162e+00,    1.48849e+01,    3.55536e+01
   6.96000e+03,    4.88865e+00,    1.48705e+01,    3.55606e+01
   6.97000e+03,    4.88568e+00,    1.48562e+01,    3.55676e+01
   6.98000e+03,    4.88270e+00,    1.48419e+01,    3.55746e+01
   6.99000e+03,    4.87971e+00,    1.48277e+01,    3.55816e+01
   7.00000e+03,    4.87672e+00,    1.48135e+01,    3.55886e+01
   7.01000e+03,    4.87373e+00,    1.47993e+01,    3.55955e+01
   7.02000e+03,    4.87073e+00,    1.47851e+01,    3.56025e+01
   7.03000e+03,    4.86772e+00,    1.47710e+01,    3.56094e+01
   7.04000e+03,    4.86472e+00,    1.47570e+01,    3.56163e+01
   7.05000e+03,    4.86170e+00,    1.47429e+01,    3.56232e+01
   7.06000e+03,    4.85869e+00,    1.47289e+01,    3.56301e+01
   7.07000e+03,    4.85567e+00,    1.47150e+01,    3.56370e+01
   7.08000e+03,    4.85264e+00,    1.47011e+01,    3.56439e+01
   7.09000e+03,    4.84961e+00,    1.46872e+01,    3.56507e+01
   7.10000e+03,    4.84658e+00,    1.46733e+01,    3.56576e+01
   7.11000e+03,    4.84355e+00,    1.46595e+01,    3.56644e+01
   7.12000e+03,    4.84051e+00,    1.46457e+01,    3.56712e+01
   7.13000e+03,    4.83746e+00,    1.46319e+01,    3.56780e+01
   7.14000e+03,    4.83441e+00,    1.46182e+01,    3.56847e+01
   7.15000e+03,    4.83136e+00,    1.46045e+01,    3.56915e+01
   7.16000e+03,    4.82831e+00,    1.45909e+01,    3.56983e+01
   7.17000e+03,    4.82525e+00,    1.45773e+01,    3.57050e+01
   7.18000e+03,    4.82219e+00,    1.45637e+01,    3.57117e+01
   7.19000e+03,    4.81913e+00,    1.45501e+01,    3.57184e+01
   7.20000e+03,    4.81606e+00,    1.45366e+01,    3.57251e+01
   7.21000e+03,    4.81299e+00,    1.45231e+01,    3.57318e+01
   7.22000e+03,    4.80991e+00,    1.45097e+01,    3.57385e+01
   7.23000e+03,    4.80684e+00,    1.44963e+01,    3.57451e+01
   7.24000e+03,    4.80376e+00,    1.44829e+01,    3.57518e+01
   7.25000e+03,    4.80067e+00,    1.44695e+01,    3.57584e+01
   7.26000e+03,    4.79759e+00,    1.44562e+01,    3.57650e+01
   7.27000e+03,    4.79450e+00,    1.44429e+01,    3.57716e+01
   7.28000e+03,    4.79141e+00,    1.44297e+01,    3.57782e+01
   7.29000e+03,    4.78831e+00,    1.44164e+01,    3.57848e+01
   7.30000e+03,    4.78522e+00,    1.44032e+01,    3.57913e+01
   7.31000e+03,    4.78212e+00,    1.43901e+01,    3.57979e+01
   7.32000e+03,    4.77902e+00,    1.43769e+01,    3.58044e+01
   7.33000e+03,    4.77591e+00,    1.43639e+01,    3.58109e+01
   7.34000e+03,    4.77281e+00,    1.43508e+01,    3.58175e+01
   7.35000e+03,    4.76970e+00,    1.43378e+01,    3.58240e+01
   7.36000e+03,    4.76659e+00,    1.43248e+01,    3.58304e+01
   7.37000e+03,    4.76348e+00,    1.43118e+01,    3.58369e+01
   7.38000e+03,    4.76036e+00,    1.42988e+01,    3.58434e+01
   7.39000e+03,    4.75724e+00,    1.42859e+01,    3.58498e+01
   7.40000e+03,    4.75413e+00,    1.42731e+01,    3.58562e+01
   7.41000e+03,    4.75100e+00,    1.42602e+01,    3.58627e+01
   7.42000e+03,    4.74788e+00,    1.42474e+01,    3.58691e+01
   7.43000e+03,    4.74476e+00,    1.42346e+01,    3.58755e+01
   7.44000e+03,    4.74163e+00,    1.42218e+01,    3.58818e+01
   7.45000e+03,    4.73850e+00,    1.42091e+01,    3.58882e+01
   7.46000e+03,    4.73537e+00,    1.41964e+01,    3.58946e+01
   7.47000e+03,    4.73224e+00,    1.41838e+01,    3.59009e+01
   7.48000e+03,    4.72911e+00,    1.41711e+01,    3.59072e+01
   7.49000e+03,    4.72598e+00,    1.41585e+01,    3.59135e+01
   7.50000e+03,    4.72284e+00,    1.41459e+01,    3.59198e+01
   7.51000e+03,    4.71971e+00,    1.41334e+01,    3.59261e+01
   7.52000e+03,    4.71657e+00,    1.41209e+01,    3.59324e+01
   7.53000e+03,    4.71343e+00,    1.41084e+01,    3.59387e+01
   7.54000e+03,    4.71029e+00,    1.40959e+01,    3.59449e+01
   7.55000e+03,    4.70715e+00,    1.40835e+01,    3.59512e+01
   7.56000e+03,    4.70400e+00,    1.40711e+01,    3.59574e+01
   7.57000e+03,    4.70086e+00,    1.40587e+01,    3.59636e+01
   7.58000e+03,    4.69772e+00,    1.40463e+01,    3.59698e+01
   7.59000e+03,    4.69457e+00,    1.40340e+01,    3.59760e+01
   7.60000e+03,    4.69142e+00,    1.40217e+01,    3.59822e+01
   7.61000e+03,    4.68828e+00,    1.40095e+01,    3.59884e+01
   7.62000e+03,    4.68513e+00,    1.39972e+01,    3.59945e+01
   7.63000e+03,    4.68198e+00,    1.39850e+01,    3.60007e+01
   7.64000e+03,    4.67883e+00,    1.39728e+01,    3.60068e+01
   7.65000e+03,    4.67568e+00,    1.39607e+01,    3.60129e+01
   7.66000e+03,    4.67253e+00,    1.39486e+01,    3.60190e+01
   7.67000e+03,    4.66938e+00,    1.39365e+01,    3.60251e+01
   7.68000e+03,    4.66623e+00,    1.39244e+01,    3.60312e+01
   7.69000e+03,    4.66308e+00,    1.39124e+01,    3.60373e+01
   7.70000e+03,    4.65993e+00,    1.39004e+01,    3.60433e+01
   7.71000e+03,    4.65678e+00,    1.38884e+01,    3.60494e+01
   7.72000e+03,    4.65362e+00,    1.38764e+01,    3.60554e+01
   7.73000e+03,    4.65047e+00,    1.38645e+01,    3.60614e+01
   7.74000e+03,    4.64732e+00,    1.38526e+01,    3.60674e+01
   7.75000e+03,    4.64417e+00,    1.38407e+01,    3.60734e+01
   7.76000e+03,    4.64101e+00,    1.38288e+01,    3.60794e+01
   7.77000e+03,    4.63786e+00,    1.38170e+01,    3.60854e+01
   7.78000e+03,    4.63471e+00,    1.38052e+01,    3.60913e+01
   7.79000e+03,    4.63156e+00,    1.37934e+01,    3.60973e+01
   7.80000e+03,    4.62840e+00,    1.37817e+01,    3.61032e+01
   7.81000e+03,    4.62525e+00,    1.37700e+01,    3.61092e+01
   7.82000e+03,    4.62210e+00,    1.37583e+01,    3.61151e+01
   7.83000e+03,    4.61895e+00,    1.37466e+01,    3.61210e+01
   7.84000e+03,    4.61580e+00,    1.37350e+01,    3.61269e+01
   7.85000e+03,    4.61264e+00,    1.37233e+01,    3.61328e+01
   7.86000e+03,    4.60949e+00,    1.37117e+01,    3.61386e+01
   7.87000e+03,    4.60634e+00,    1.37002e+01,    3.61445e+01
   7.88000e+03,    4.60319e+00,    1.36886e+01,    3.61503e+01
   7.89000e+03,    4.60004e+00,    1.36771e+01,    3.61562e+01
   7.90000e+03,    4.59690e+00,    1.36656e+01,    3.61620e+01
   7.91000e+03,    4.59375e+00,    1.36542e+01,    3.61678e+01
   7.92000e+03,    4.59060e+00,    1.36427e+01,    3.61736e+01
   7.93000e+03,    4.58745e+00,    1.36313e+01,    3.61794e+01
   7.94000e+03,    4.58431e+00,    1.36199e+01,    3.61852e+01
   7.95000e+03,    4.58116e+00,    1.36085e+01,    3.61910e+01
   7.96000e+03,    4.57802e+00,    1.35972e+01,    3.61967e+01
   7.97000e+03,    4.57487e+00,    1.35859e+01,    3.62025e+01
   7.98000e+03,    4.57173e+00,    1.35746e+01,    3.62082e+01
   7.99000e+03,    4.56859e+00,    1.35633e+01,    3.62139e+01
   8.00000e+03,    4.56545e+00,    1.35521e+01,    3.62196e+01
   8.01000e+03,    4.56231e+00,    1.35408e+01,    3.62253e+01
   8.02000e+03,    4.55917e+00,    1.35296e+01,    3.62310e+01
   8.03000e+03,    4.55603e+00,    1.35185e+01,    3.62367e+01
   8.04000e+03,    4.55290e+00,    1.35073e+01,    3.62424e+01
   8.05000e+03,    4.54976e+00,    1.34962e+01,    3.62480e+01
   8.06000e+03,    4.54663e+00,    1.34851e+01,    3.62537e+01
   8.07000e+03,    4.54350e+00,    1.34740e+01,    3.62593e+01
   8.08000e+03,    4.54036e+00,    1.34630e+01,    3.62649e+01
   8.09000e+03,    4.53723e+00,    1.34519e+01,    3.62705e+01
   8.10000e+03,    4.53411e+00,    1.34409e+01,    3.62761e+01
   8.11000e+03,    4.53098e+00,    1.34299e+01,    3.62817e+01
   8.12000e+03,    4.52785e+00,    1.34190e+01,    3.62873e+01
   8.13000e+03,    4.52473e+00,    1.34080e+01,    3.62929e+01
   8.14000e+03,    4.52161e+00,    1.33971e+01,    3.62984e+01
   8.15000e+03,    4.51848e+00,    1.33862e+01,    3.63040e+01
   8.16000e+03,    4.51536e+00,    1.33754e+01,    3.63095e+01
   8.17000e+03,    4.51225e+00,    1.33645e+01,    3.63151e+01
   8.18000e+03,    4.50913e+00,    1.33537e+01,    3.63206e+01
   8.19000e+03,    4.50601e+00,    1.33429e+01,    3.63261e+01
   8.20000e+03,    4.50290e+00,    1.33321e+01,    3.63316e+01
   8.21000e+03,    4.49979e+00,    1.33214e+01,    3.63371e+01
   8.22000e+03,    4.49668e+00,    1.33106e+01,    3.63425e+01
   8.23000e+03,    4.49357e+00,    1.32999e+01,    3.63480e+01
   8.24000e+03,    4.49047e+00,    1.32892e+01,    3.63535e+01
   8.25000e+03,    4.48736e+00,    1.32786e+01,    3.63589e+01
   8.26000e+03,    4.48426e+00,    1.32679e+01,    3.63643e+01
   8.27000e+03,    4.48116e+00,    1.32573e+01,    3.63698e+01
   8.28000e+03,    4.47806e+00,    1.32467e+01,    3.63752e+01
   8.29000e+03,    4.47497e+00,    1.32361e+01,    3.63806e+01
   8.30000e+03,    4.47187e+00,    1.32256e+01,    3.63860e+01
   8.31000e+03,    4.46878e+00,    1.32150e+01,    3.63914e+01
   8.32000e+03,    4.46569e+00,    1.32045e+01,    3.63967e+01
   8.33000e+03,    4.46260e+00,    1.31940e+01,    3.64021e+01
   8.34000e+03,    4.45952e+00,    1.31835e+01,    3.64074e+01
   8.35000e+03,    4.45643e+00,    1.31731e+01,    3.64128e+01
   8.36000e+03,    4.45335e+00,    1.31627e+01,    3.64181e+01
   8.37000e+03,    4.45027e+00,    1.31523e+01,    3.64234e+01
   8.38000e+03,    4.44719e+00,    1.31419e+01,    3.64288e+01
   8.39000e+03,    4.44412e+00,    1.31315e+01,    3.64341e+01
   8.40000e+03,    4.44105e+00,    1.31212e+01,    3.64394e+01
   8.41000e+03,    4.43798e+00,    1.31108e+01,    3.64446e+01
   8.42000e+03,    4.43491e+00,    1.31005e+01,    3.64499e+01
   8.43000e+03,    4.43184e+00,    1.30903e+01,    3.64552e+01
   8.44000e+03,    4.42878e+00,    1.30800e+01,    3.64604e+01
   8.45000e+03,    4.42572e+00,    1.30698e+01,    3.64657e+01
   8.46000e+03,    4.42266e+00,    1.30595e+01,    3.64709e+01
   8.47000e+03,    4.41961e+00,    1.30493e+01,    3.64761e+01
   8.48000e+03,    4.41655e+00,    1.30392e+01,    3.64813e+01
   8.49000e+03,    4.41350e+00,    1.30290e+01,    3.64865e+01
   8.50000e+03,    4.41046e+00,    1.30189e+01,    3.64917e+01
   8.51000e+03,    4.40741e+00,    1.30087e+01,    3.64969e+01
   8.52000e+03,    4.40437e+00,    1.29986e+01,    3.65021e+01
   8.53000e+03,    4.40133e+00,    1.29886e+01,    3.65073e+01
   8.54000e+03,    4.39829e+00,    1.29785e+01,    3.65124e+01
   8.55000e+03,    4.39526e+00,    1.29685e+01,    3.65176e+01
   8.56000e+03,    4.39223e+00,    1.29585e+01,    3.65227e+01
   8.57000e+03,    4.38920e+00,    1.29485e+01,    3.65278e+01
   8.58000e+03,    4.38617e+00,    1.29385e+01,    3.65329e+01
   8.59000e+03,    4.38315e+00,    1.29285e+01,    3.65380e+01
   8.60000e+03,    4.38013e+00,    1.29186e+01,    3.65431e+01
   8.61000e+03,    4.37711e+00,    1.29087e+01,    3.65482e+01
   8.62000e+03,    4.37409e+00,    1.28988e+01,    3.65533e+01
   8.63000e+03,    4.37108e+00,    1.28889e+01,    3.65584e+01
   8.64000e+03,    4.36807e+00,    1.28790e+01,    3.65634e+01
   8.65000e+03,    4.36507e+00,    1.28692e+01,    3.65685e+01
   8.66000e+03,    4.36206e+00,    1.28594e+01,    3.65735e+01
   8.67000e+03,    4.35906e+00,    1.28496e+01,    3.65786e+01
   8.68000e+03,    4.35606e+00,    1.28398e+01,    3.65836e+01
   8.69000e+03,    4.35307e+00,    1.28300e+01,    3.65886e+01
   8.70000e+03,    4.35008e+00,    1.28203e+01,    3.65936e+01
   8.71000e+03,    4.34709e+00,    1.28105e+01,    3.65986e+01
   8.72000e+03,    4.34410e+00,    1.28008e+01,    3.66036e+01
   8.73000e+03,    4.34112e+00,    1.27911e+01,    3.66086e+01
   8.74000e+03,    4.33814e+00,    1.27815e+01,    3.66135e+01
   8.75000e+03,    4.33517e+00,    1.27718e+01,    3.66185e+01
   8.76000e+03,    4.33219e+00,    1.27622e+01,    3.66234e+01
   8.77000e+03,    4.32923e+00,    1.27526e+01,    3.66284e+01
   8.78000e+03,    4.32626e+00,    1.27430e+01,    3.66333e+01
   8.79000e+03,    4.32330e+00,    1.27334e+01,    3.66382e+01
   8.80000e+03,    4.32034e+00,    1.27238e+01,    3.66431e+01
   8.81000e+03,    4.31738e+00,    1.27143e+01,    3.66481e+01
   8.82000e+03,    4.31442e+00,    1.27048e+01,    3.66529e+01
   8.83000e+03,    4.31147e+00,    1.26953e+01,    3.66578e+01
   8.84000e+03,    4.30853e+00,    1.26858e+01,    3.66627e+01
   8.85000e+03,    4.30558e+00,    1.26763e+01,    3.66676e+01
   8.86000e+03,    4.30264e+00,    1.26669e+01,    3.66724e+01
   8.87000e+03,    4.29971e+00,    1.26574e+01,    3.66773e+01
   8.88000e+03,    4.29677e+00,    1.26480e+01,    3.66821e+01
   8.89000e+03,    4.29384e+00,    1.26386e+01,    3.66870e+01
   8.90000e+03,    4.29092e+00,    1.26293e+01,    3.66918e+01
   8.91000e+03,    4.28799e+00,    1.26199e+01,    3.66966e+01
   8.92000e+03,    4.28507e+00,    1.26106e+01,    3.67014e+01
   8.93000e+03,    4.28216e+00,    1.26012e+01,    3.67062e+01
   8.94000e+03,    4.27924e+00,    1.25919e+01,    3.67110e+01
   8.95000e+03,    4.27633e+00,    1.25826e+01,    3.67158e+01
   8.96000e+03,    4.27343e+00,    1.25734e+01,    3.67206e+01
   8.97000e+03,    4.27052e+00,    1.25641e+01,    3.67253e+01
   8.98000e+03,    4.26762e+00,    1.25549e+01,    3.67301e+01
   8.99000e+03,    4.26473e+00,    1.25457e+01,    3.67348e+01
   9.00000e+03,    4.26184e+00,    1.25365e+01,    3.67396e+01
   9.01000e+03,    4.25895e+00,    1.25273e+01,    3.67443e+01
   9.02000e+03,    4.25606e+00,    1.25181e+01,    3.67490e+01
   9.03000e+03,    4.25318e+00,    1.25089e+01,    3.67537e+01
   9.04000e+03,    4.25030e+00,    1.24998e+01,    3.67585e+01
   9.05000e+03,    4.24743e+00,    1.24907e+01,    3.67631e+01
   9.06000e+03,    4.24456e+00,    1.24816e+01,    3.67678e+01
   9.07000e+03,    4.24169e+00,    1.24725e+01,    3.67725e+01
   9.08000e+03,    4.23883e+00,    1.24634e+01,    3.67772e+01
   9.09000e+03,    4.23597e+00,    1.24544e+01,    3.67819e+01
   9.10000e+03,    4.23311e+00,    1.24454e+01,    3.67865e+01
   9.11000e+03,    4.23026e+00,    1.24363e+01,    3.67912e+01
   9.12000e+03,    4.22741e+00,    1.24273e+01,    3.67958e+01
   9.13000e+03,    4.22457e+00,    1.24184e+01,    3.68004e+01
   9.14000e+03,    4.22172e+00,    1.24094e+01,    3.68051e+01
   9.15000e+03,    4.21889e+00,    1.24004e+01,    3.68097e+01
   9.16000e+03,    4.21605e+00,    1.23915e+01,    3.68143e+01
   9.17000e+03,    4.21322e+00,    1.23826e+01,    3.68189e+01
   9.18000e+03,    4.21040e+00,    1.23737e+01,    3.68235e+01
   9.19000e+03,    4.20757e+00,    1.23648e+01,    3.68280e+01
   9.20000e+03,    4.20475e+00,    1.23559e+01,    3.68326e+01
   9.21000e+03,    4.20194e+00,    1.23471e+01,    3.68372e+01
   9.22000e+03,    4.19913e+00,    1.23383e+01,    3.68417e+01
   9.23000e+03,    4.19632e+00,    1.23294e+01,    3.68463e+01
   9.24000e+03,    4.19352e+00,    1.23206e+01,    3.68508e+01
   9.25000e+03,    4.19072e+00,    1.23118e+01,    3.68554e+01
   9.26000e+03,    4.18792e+00,    1.23031e+01,    3.68599e+01
   9.27000e+03,    4.18513e+00,    1.22943e+01,    3.68644e+01
   9.28000e+03,    4.18234e+00,    1.22856e+01,    3.68689e+01
   9.29000e+03,    4.17956e+00,    1.22769e+01,    3.68734e+01
   9.30000e+03,    4.17678e+00,    1.22681e+01,    3.68779e+01
   9.31000e+03,    4.17400e+00,    1.22595e+01,    3.68824e+01
   9.32000e+03,    4.17123e+00,    1.22508e+01,    3.68869e+01
   9.33000e+03,    4.16846e+00,    1.22421e+01,    3.68914e+01
   9.34000e+03,    4.16569e+00,    1.22335e+01,    3.68958e+01
   9.35000e+03,    4.16293e+00,    1.22248e+01,    3.69003e+01
   9.36000e+03,    4.16018e+00,    1.22162e+01,    3.69047e+01
   9.37000e+03,    4.15742e+00,    1.22076e+01,    3.69092e+01
   9.38000e+03,    4.15467e+00,    1.21990e+01,    3.69136e+01
   9.39000e+03,    4.15193e+00,    1.21905e+01,    3.69180e+01
   9.40000e+03,    4.14919e+00,    1.21819e+01,    3.69225e+01
   9.41000e+03,    4.14645e+00,    1.21734e+01,    3.69269e+01
   9.42000e+03,    4.14372e+00,    1.21649e+01,    3.69313e+01
   9.43000e+03,    4.14099e+00,    1.21564e+01,    3.69357e+01
   9.44000e+03,    4.13826e+00,    1.21479e+01,    3.69400e+01
   9.45000e+03,    4.13554e+00,    1.21394e+01,    3.69444e+01
   9.46000e+03,    4.13282e+00,    1.21309e+01,    3.69488e+01
   9.47000e+03,    4.13011e+00,    1.21225e+01,    3.69532e+01
   9.48000e+03,    4.12740e+00,    1.21140e+01,    3.69575e+01
   9.49000e+03,    4.12469e+00,    1.21056e+01,    3.69619e+01
   9.50000e+03,    4.12199e+00,    1.20972e+01,    3.69662e+01
   9.51000e+03,    4.11930e+00,    1.20888e+01,    3.69705e+01
   9.52000e+03,    4.11660e+00,    1.20805e+01,    3.69749e+01
   9.53000e+03,    4.11391e+00,    1.20721e+01,    3.69792e+01
   9.54000e+03,    4.11123e+00,    1.20638e+01,    3.69835e+01
   9.55000e+03,    4.10855e+00,    1.20554e+01,    3.69878e+01
   9.56000e+03,    4.10587e+00,    1.20471e+01,    3.69921e+01
   9.57000e+03,    4.10320e+00,    1.20388e+01,    3.69964e+01
   9.58000e+03,    4.10053e+00,    1.20305e+01,    3.70007e+01
   9.59000e+03,    4.09786e+00,    1.20223e+01,    3.70050e+01
   9.60000e+03,    4.09520e+00,    1.20140e+01,    3.70092e+01
   9.61000e+03,    4.09255e+00,    1.20058e+01,    3.70135e+01
   9.62000e+03,    4.08989e+00,    1.19975e+01,    3.70178e+01
   9.63000e+03,    4.08724e+00,    1.19893e+01,    3.70220e+01
   9.64000e+03,    4.08460e+00,    1.19811e+01,    3.70262e+01
   9.65000e+03,    4.08196e+00,    1.19729e+01,    3.70305e+01
   9.66000e+03,    4.07932e+00,    1.19648e+01,    3.70347e+01
   9.67000e+03,    4.07669e+00,    1.19566e+01,    3.70389e+01
   9.68000e+03,    4.07406e+00,    1.19485e+01,    3.70431e+01
   9.69000e+03,    4.07144e+00,    1.19403e+01,    3.70473e+01
   9.70000e+03,    4.06882e+00,    1.19322e+01,    3.70515e+01
   9.71000e+03,    4.06620e+00,    1.19241e+01,    3.70557e+01
   9.72000e+03,    4.06359e+00,    1.19160e+01,    3.70599e+01
   9.73000e+03,    4.06099e+00,    1.19080e+01,    3.70641e+01
   9.74000e+03,    4.05838e+00,    1.18999e+01,    3.70683e+01
   9.75000e+03,    4.05578e+00,    1.18919e+01,    3.70724e+01
   9.76000e+03,    4.05319e+00,    1.18838e+01,    3.70766e+01
   9.77000e+03,    4.05060e+00,    1.18758e+01,    3.70807e+01
   9.78000e+03,    4.04801e+00,    1.18678e+01,    3.70849e+01
   9.79000e+03,    4.04543e+00,    1.18598e+01,    3.70890e+01
   9.80000e+03,    4.04285e+00,    1.18519e+01,    3.70931e+01
   9.81000e+03,    4.04028e+00,    1.18439e+01,    3.70973e+01
   9.82000e+03,    4.03771e+00,    1.18360e+01,    3.71014e+01
   9.83000e+03,    4.03514e+00,    1.18280e+01,    3.71055e+01
   9.84000e+03,    4.03258e+00,    1.18201e+01,    3.71096e+01
   9.85000e+03,    4.03002e+00,    1.18122e+01,    3.71137e+01
   9.86000e+03,    4.02747e+00,    1.18043e+01,    3.71178e+01
   9.87000e+03,    4.02492e+00,    1.17964e+01,    3.71218e+01
   9.88000e+03,    4.02237e+00,    1.17885e+01,    3.71259e+01
   9.89000e+03,    4.01983e+00,    1.17807e+01,    3.71300e+01
   9.90000e+03,    4.01730e+00,    1.17729e+01,    3.71341e+01
   9.91000e+03,    4.01476e+00,    1.17650e+01,    3.71381e+01
   9.92000e+03,    4.01224e+00,    1.17572e+01,    3.71422e+01
   9.93000e+03,    4.00971e+00,    1.17494e+01,    3.71462e+01
   9.94000e+03,    4.00719e+00,    1.17416e+01,    3.71502e+01
   9.95000e+03,    4.00468e+00,    1.17338e+01,    3.71543e+01
   9.96000e+03,    4.00216e+00,    1.17261e+01,    3.71583e+01
   9.97000e+03,    3.99966e+00,    1.17183e+01,    3.71623e+01
   9.98000e+03,    3.99715e+00,    1.17106e+01,    3.71663e+01
   9.99000e+03,    3.99465e+00,    1.17029e+01,    3.71703e+01
   1.00000e+04,    3.99216e+00,    1.16952e+01,    3.71743e+01
