# Statistical Thermodynamics
# Computation done on 12-Feb-2020 00:01:47
# Species OH(A)
# Standard state T =    2.98150e+02 (K) P =    1.01325e+05 (Pa)
# C_P           2.91029e+01 (J/K mol)
# H             4.28287e+05 (J/mol)
# S             1.78971e+02 (J/K mol)
# C_P/R         3.50028e+00
# H/RT          1.72769e+02
# S/R           2.15253e+01
#     T            C_P/R           H/RT            S/R
   2.00000e+02,    3.50037e+00,    2.55838e+02,    2.01277e+01
   2.10000e+02,    3.50033e+00,    2.43822e+02,    2.02985e+01
   2.20000e+02,    3.50030e+00,    2.32898e+02,    2.04613e+01
   2.30000e+02,    3.50028e+00,    2.22924e+02,    2.06169e+01
   2.40000e+02,    3.50025e+00,    2.13782e+02,    2.07659e+01
   2.50000e+02,    3.50024e+00,    2.05370e+02,    2.09088e+01
   2.60000e+02,    3.50023e+00,    1.97606e+02,    2.10461e+01
   2.70000e+02,    3.50023e+00,    1.90417e+02,    2.11782e+01
   2.80000e+02,    3.50023e+00,    1.83741e+02,    2.13055e+01
   2.90000e+02,    3.50025e+00,    1.77526e+02,    2.14283e+01
   3.00000e+02,    3.50029e+00,    1.71725e+02,    2.15470e+01
   3.10000e+02,    3.50034e+00,    1.66299e+02,    2.16617e+01
   3.20000e+02,    3.50041e+00,    1.61211e+02,    2.17729e+01
   3.30000e+02,    3.50052e+00,    1.56432e+02,    2.18806e+01
   3.40000e+02,    3.50066e+00,    1.51934e+02,    2.19851e+01
   3.50000e+02,    3.50085e+00,    1.47693e+02,    2.20866e+01
   3.60000e+02,    3.50108e+00,    1.43688e+02,    2.21852e+01
   3.70000e+02,    3.50138e+00,    1.39899e+02,    2.22811e+01
   3.80000e+02,    3.50174e+00,    1.36310e+02,    2.23745e+01
   3.90000e+02,    3.50217e+00,    1.32904e+02,    2.24655e+01
   4.00000e+02,    3.50269e+00,    1.29669e+02,    2.25541e+01
   4.10000e+02,    3.50331e+00,    1.26592e+02,    2.26406e+01
   4.20000e+02,    3.50402e+00,    1.23661e+02,    2.27251e+01
   4.30000e+02,    3.50485e+00,    1.20867e+02,    2.28075e+01
   4.40000e+02,    3.50580e+00,    1.18200e+02,    2.28881e+01
   4.50000e+02,    3.50687e+00,    1.15651e+02,    2.29669e+01
   4.60000e+02,    3.50808e+00,    1.13213e+02,    2.30440e+01
   4.70000e+02,    3.50943e+00,    1.10879e+02,    2.31195e+01
   4.80000e+02,    3.51092e+00,    1.08642e+02,    2.31934e+01
   4.90000e+02,    3.51257e+00,    1.06497e+02,    2.32658e+01
   5.00000e+02,    3.51439e+00,    1.04437e+02,    2.33368e+01
   5.10000e+02,    3.51636e+00,    1.02458e+02,    2.34064e+01
   5.20000e+02,    3.51850e+00,    1.00555e+02,    2.34747e+01
   5.30000e+02,    3.52081e+00,    9.87245e+01,    2.35417e+01
   5.40000e+02,    3.52330e+00,    9.69615e+01,    2.36075e+01
   5.50000e+02,    3.52595e+00,    9.52626e+01,    2.36722e+01
   5.60000e+02,    3.52879e+00,    9.36245e+01,    2.37358e+01
   5.70000e+02,    3.53179e+00,    9.20439e+01,    2.37983e+01
   5.80000e+02,    3.53498e+00,    9.05178e+01,    2.38597e+01
   5.90000e+02,    3.53833e+00,    8.90436e+01,    2.39202e+01
   6.00000e+02,    3.54186e+00,    8.76185e+01,    2.39797e+01
   6.10000e+02,    3.54556e+00,    8.62402e+01,    2.40382e+01
   6.20000e+02,    3.54943e+00,    8.49065e+01,    2.40959e+01
   6.30000e+02,    3.55346e+00,    8.36151e+01,    2.41527e+01
   6.40000e+02,    3.55766e+00,    8.23642e+01,    2.42087e+01
   6.50000e+02,    3.56201e+00,    8.11518e+01,    2.42639e+01
   6.60000e+02,    3.56652e+00,    7.99763e+01,    2.43183e+01
   6.70000e+02,    3.57118e+00,    7.88358e+01,    2.43720e+01
   6.80000e+02,    3.57598e+00,    7.77291e+01,    2.44250e+01
   6.90000e+02,    3.58092e+00,    7.66544e+01,    2.44772e+01
   7.00000e+02,    3.58600e+00,    7.56105e+01,    2.45288e+01
   7.10000e+02,    3.59121e+00,    7.45961e+01,    2.45797e+01
   7.20000e+02,    3.59654e+00,    7.36100e+01,    2.46299e+01
   7.30000e+02,    3.60199e+00,    7.26509e+01,    2.46796e+01
   7.40000e+02,    3.60756e+00,    7.17179e+01,    2.47286e+01
   7.50000e+02,    3.61323e+00,    7.08098e+01,    2.47771e+01
   7.60000e+02,    3.61901e+00,    6.99257e+01,    2.48250e+01
   7.70000e+02,    3.62489e+00,    6.90646e+01,    2.48723e+01
   7.80000e+02,    3.63086e+00,    6.82256e+01,    2.49191e+01
   7.90000e+02,    3.63692e+00,    6.74080e+01,    2.49654e+01
   8.00000e+02,    3.64305e+00,    6.66109e+01,    2.50112e+01
   8.10000e+02,    3.64927e+00,    6.58336e+01,    2.50565e+01
   8.20000e+02,    3.65555e+00,    6.50753e+01,    2.51013e+01
   8.30000e+02,    3.66191e+00,    6.43353e+01,    2.51457e+01
   8.40000e+02,    3.66832e+00,    6.36131e+01,    2.51896e+01
   8.50000e+02,    3.67479e+00,    6.29079e+01,    2.52330e+01
   8.60000e+02,    3.68131e+00,    6.22191e+01,    2.52760e+01
   8.70000e+02,    3.68788e+00,    6.15463e+01,    2.53186e+01
   8.80000e+02,    3.69449e+00,    6.08889e+01,    2.53608e+01
   8.90000e+02,    3.70113e+00,    6.02463e+01,    2.54026e+01
   9.00000e+02,    3.70781e+00,    5.96180e+01,    2.54440e+01
   9.10000e+02,    3.71452e+00,    5.90037e+01,    2.54850e+01
   9.20000e+02,    3.72126e+00,    5.84028e+01,    2.55256e+01
   9.30000e+02,    3.72802e+00,    5.78148e+01,    2.55659e+01
   9.40000e+02,    3.73480e+00,    5.72395e+01,    2.56058e+01
   9.50000e+02,    3.74159e+00,    5.66763e+01,    2.56454e+01
   9.60000e+02,    3.74839e+00,    5.61249e+01,    2.56846e+01
   9.70000e+02,    3.75520e+00,    5.55850e+01,    2.57235e+01
   9.80000e+02,    3.76201e+00,    5.50562e+01,    2.57620e+01
   9.90000e+02,    3.76883e+00,    5.45381e+01,    2.58002e+01
   1.00000e+03,    3.77564e+00,    5.40304e+01,    2.58382e+01
   1.01000e+03,    3.78245e+00,    5.35329e+01,    2.58758e+01
   1.02000e+03,    3.78925e+00,    5.30451e+01,    2.59131e+01
   1.03000e+03,    3.79605e+00,    5.25670e+01,    2.59501e+01
   1.04000e+03,    3.80283e+00,    5.20981e+01,    2.59868e+01
   1.05000e+03,    3.80960e+00,    5.16381e+01,    2.60232e+01
   1.06000e+03,    3.81635e+00,    5.11869e+01,    2.60593e+01
   1.07000e+03,    3.82308e+00,    5.07443e+01,    2.60952e+01
   1.08000e+03,    3.82980e+00,    5.03098e+01,    2.61308e+01
   1.09000e+03,    3.83649e+00,    4.98834e+01,    2.61661e+01
   1.10000e+03,    3.84316e+00,    4.94649e+01,    2.62012e+01
   1.11000e+03,    3.84980e+00,    4.90539e+01,    2.62360e+01
   1.12000e+03,    3.85642e+00,    4.86503e+01,    2.62706e+01
   1.13000e+03,    3.86301e+00,    4.82539e+01,    2.63049e+01
   1.14000e+03,    3.86957e+00,    4.78646e+01,    2.63389e+01
   1.15000e+03,    3.87610e+00,    4.74820e+01,    2.63728e+01
   1.16000e+03,    3.88260e+00,    4.71062e+01,    2.64063e+01
   1.17000e+03,    3.88906e+00,    4.67367e+01,    2.64397e+01
   1.18000e+03,    3.89549e+00,    4.63737e+01,    2.64728e+01
   1.19000e+03,    3.90189e+00,    4.60167e+01,    2.65057e+01
   1.20000e+03,    3.90824e+00,    4.56658e+01,    2.65384e+01
   1.21000e+03,    3.91457e+00,    4.53207e+01,    2.65709e+01
   1.22000e+03,    3.92085e+00,    4.49813e+01,    2.66031e+01
   1.23000e+03,    3.92710e+00,    4.46475e+01,    2.66351e+01
   1.24000e+03,    3.93331e+00,    4.43192e+01,    2.66670e+01
   1.25000e+03,    3.93948e+00,    4.39961e+01,    2.66986e+01
   1.26000e+03,    3.94561e+00,    4.36782e+01,    2.67300e+01
   1.27000e+03,    3.95170e+00,    4.33654e+01,    2.67612e+01
   1.28000e+03,    3.95775e+00,    4.30575e+01,    2.67922e+01
   1.29000e+03,    3.96376e+00,    4.27544e+01,    2.68230e+01
   1.30000e+03,    3.96973e+00,    4.24561e+01,    2.68537e+01
   1.31000e+03,    3.97566e+00,    4.21623e+01,    2.68841e+01
   1.32000e+03,    3.98154e+00,    4.18730e+01,    2.69144e+01
   1.33000e+03,    3.98739e+00,    4.15882e+01,    2.69444e+01
   1.34000e+03,    3.99319e+00,    4.13076e+01,    2.69743e+01
   1.35000e+03,    3.99895e+00,    4.10312e+01,    2.70040e+01
   1.36000e+03,    4.00466e+00,    4.07589e+01,    2.70336e+01
   1.37000e+03,    4.01034e+00,    4.04907e+01,    2.70629e+01
   1.38000e+03,    4.01597e+00,    4.02263e+01,    2.70921e+01
   1.39000e+03,    4.02156e+00,    3.99658e+01,    2.71211e+01
   1.40000e+03,    4.02711e+00,    3.97091e+01,    2.71500e+01
   1.41000e+03,    4.03261e+00,    3.94561e+01,    2.71787e+01
   1.42000e+03,    4.03808e+00,    3.92066e+01,    2.72072e+01
   1.43000e+03,    4.04350e+00,    3.89607e+01,    2.72356e+01
   1.44000e+03,    4.04888e+00,    3.87183e+01,    2.72637e+01
   1.45000e+03,    4.05422e+00,    3.84792e+01,    2.72918e+01
   1.46000e+03,    4.05951e+00,    3.82434e+01,    2.73197e+01
   1.47000e+03,    4.06477e+00,    3.80109e+01,    2.73474e+01
   1.48000e+03,    4.06998e+00,    3.77815e+01,    2.73750e+01
   1.49000e+03,    4.07515e+00,    3.75553e+01,    2.74024e+01
   1.50000e+03,    4.08028e+00,    3.73321e+01,    2.74297e+01
   1.51000e+03,    4.08537e+00,    3.71119e+01,    2.74568e+01
   1.52000e+03,    4.09042e+00,    3.68947e+01,    2.74838e+01
   1.53000e+03,    4.09543e+00,    3.66803e+01,    2.75106e+01
   1.54000e+03,    4.10040e+00,    3.64687e+01,    2.75373e+01
   1.55000e+03,    4.10533e+00,    3.62599e+01,    2.75639e+01
   1.56000e+03,    4.11022e+00,    3.60538e+01,    2.75903e+01
   1.57000e+03,    4.11508e+00,    3.58503e+01,    2.76166e+01
   1.58000e+03,    4.11989e+00,    3.56495e+01,    2.76427e+01
   1.59000e+03,    4.12466e+00,    3.54512e+01,    2.76687e+01
   1.60000e+03,    4.12940e+00,    3.52554e+01,    2.76946e+01
   1.61000e+03,    4.13410e+00,    3.50621e+01,    2.77203e+01
   1.62000e+03,    4.13876e+00,    3.48712e+01,    2.77460e+01
   1.63000e+03,    4.14338e+00,    3.46827e+01,    2.77714e+01
   1.64000e+03,    4.14796e+00,    3.44965e+01,    2.77968e+01
   1.65000e+03,    4.15251e+00,    3.43126e+01,    2.78220e+01
   1.66000e+03,    4.15702e+00,    3.41309e+01,    2.78471e+01
   1.67000e+03,    4.16150e+00,    3.39514e+01,    2.78721e+01
   1.68000e+03,    4.16594e+00,    3.37741e+01,    2.78970e+01
   1.69000e+03,    4.17034e+00,    3.35989e+01,    2.79217e+01
   1.70000e+03,    4.17471e+00,    3.34258e+01,    2.79463e+01
   1.71000e+03,    4.17904e+00,    3.32548e+01,    2.79708e+01
   1.72000e+03,    4.18334e+00,    3.30858e+01,    2.79952e+01
   1.73000e+03,    4.18760e+00,    3.29187e+01,    2.80195e+01
   1.74000e+03,    4.19183e+00,    3.27536e+01,    2.80436e+01
   1.75000e+03,    4.19603e+00,    3.25904e+01,    2.80676e+01
   1.76000e+03,    4.20019e+00,    3.24291e+01,    2.80916e+01
   1.77000e+03,    4.20431e+00,    3.22696e+01,    2.81154e+01
   1.78000e+03,    4.20841e+00,    3.21119e+01,    2.81391e+01
   1.79000e+03,    4.21247e+00,    3.19561e+01,    2.81627e+01
   1.80000e+03,    4.21650e+00,    3.18019e+01,    2.81861e+01
   1.81000e+03,    4.22050e+00,    3.16496e+01,    2.82095e+01
   1.82000e+03,    4.22446e+00,    3.14989e+01,    2.82328e+01
   1.83000e+03,    4.22839e+00,    3.13498e+01,    2.82559e+01
   1.84000e+03,    4.23229e+00,    3.12024e+01,    2.82790e+01
   1.85000e+03,    4.23616e+00,    3.10567e+01,    2.83019e+01
   1.86000e+03,    4.24000e+00,    3.09125e+01,    2.83248e+01
   1.87000e+03,    4.24381e+00,    3.07699e+01,    2.83475e+01
   1.88000e+03,    4.24758e+00,    3.06288e+01,    2.83702e+01
   1.89000e+03,    4.25133e+00,    3.04892e+01,    2.83927e+01
   1.90000e+03,    4.25504e+00,    3.03511e+01,    2.84152e+01
   1.91000e+03,    4.25873e+00,    3.02145e+01,    2.84375e+01
   1.92000e+03,    4.26238e+00,    3.00793e+01,    2.84598e+01
   1.93000e+03,    4.26601e+00,    2.99456e+01,    2.84819e+01
   1.94000e+03,    4.26960e+00,    2.98132e+01,    2.85040e+01
   1.95000e+03,    4.27317e+00,    2.96822e+01,    2.85259e+01
   1.96000e+03,    4.27671e+00,    2.95526e+01,    2.85478e+01
   1.97000e+03,    4.28021e+00,    2.94243e+01,    2.85696e+01
   1.98000e+03,    4.28369e+00,    2.92973e+01,    2.85912e+01
   1.99000e+03,    4.28714e+00,    2.91716e+01,    2.86128e+01
   2.00000e+03,    4.29056e+00,    2.90472e+01,    2.86343e+01
   2.01000e+03,    4.29396e+00,    2.89240e+01,    2.86557e+01
   2.02000e+03,    4.29732e+00,    2.88021e+01,    2.86771e+01
   2.03000e+03,    4.30066e+00,    2.86814e+01,    2.86983e+01
   2.04000e+03,    4.30396e+00,    2.85619e+01,    2.87194e+01
   2.05000e+03,    4.30724e+00,    2.84436e+01,    2.87405e+01
   2.06000e+03,    4.31049e+00,    2.83264e+01,    2.87614e+01
   2.07000e+03,    4.31372e+00,    2.82104e+01,    2.87823e+01
   2.08000e+03,    4.31691e+00,    2.80955e+01,    2.88031e+01
   2.09000e+03,    4.32008e+00,    2.79818e+01,    2.88238e+01
   2.10000e+03,    4.32322e+00,    2.78691e+01,    2.88445e+01
   2.11000e+03,    4.32633e+00,    2.77575e+01,    2.88650e+01
   2.12000e+03,    4.32942e+00,    2.76470e+01,    2.88855e+01
   2.13000e+03,    4.33247e+00,    2.75375e+01,    2.89059e+01
   2.14000e+03,    4.33550e+00,    2.74291e+01,    2.89262e+01
   2.15000e+03,    4.33851e+00,    2.73217e+01,    2.89464e+01
   2.16000e+03,    4.34148e+00,    2.72153e+01,    2.89665e+01
   2.17000e+03,    4.34443e+00,    2.71099e+01,    2.89866e+01
   2.18000e+03,    4.34735e+00,    2.70055e+01,    2.90066e+01
   2.19000e+03,    4.35024e+00,    2.69020e+01,    2.90265e+01
   2.20000e+03,    4.35311e+00,    2.67995e+01,    2.90463e+01
   2.21000e+03,    4.35595e+00,    2.66980e+01,    2.90660e+01
   2.22000e+03,    4.35876e+00,    2.65973e+01,    2.90857e+01
   2.23000e+03,    4.36154e+00,    2.64976e+01,    2.91053e+01
   2.24000e+03,    4.36430e+00,    2.63988e+01,    2.91248e+01
   2.25000e+03,    4.36703e+00,    2.63009e+01,    2.91443e+01
   2.26000e+03,    4.36973e+00,    2.62038e+01,    2.91636e+01
   2.27000e+03,    4.37241e+00,    2.61077e+01,    2.91829e+01
   2.28000e+03,    4.37505e+00,    2.60123e+01,    2.92022e+01
   2.29000e+03,    4.37767e+00,    2.59178e+01,    2.92213e+01
   2.30000e+03,    4.38027e+00,    2.58242e+01,    2.92404e+01
   2.31000e+03,    4.38283e+00,    2.57314e+01,    2.92594e+01
   2.32000e+03,    4.38537e+00,    2.56394e+01,    2.92783e+01
   2.33000e+03,    4.38788e+00,    2.55481e+01,    2.92972e+01
   2.34000e+03,    4.39037e+00,    2.54577e+01,    2.93160e+01
   2.35000e+03,    4.39282e+00,    2.53681e+01,    2.93347e+01
   2.36000e+03,    4.39525e+00,    2.52792e+01,    2.93534e+01
   2.37000e+03,    4.39765e+00,    2.51911e+01,    2.93720e+01
   2.38000e+03,    4.40002e+00,    2.51037e+01,    2.93905e+01
   2.39000e+03,    4.40237e+00,    2.50171e+01,    2.94090e+01
   2.40000e+03,    4.40469e+00,    2.49312e+01,    2.94273e+01
   2.41000e+03,    4.40698e+00,    2.48461e+01,    2.94457e+01
   2.42000e+03,    4.40924e+00,    2.47616e+01,    2.94639e+01
   2.43000e+03,    4.41147e+00,    2.46778e+01,    2.94821e+01
   2.44000e+03,    4.41368e+00,    2.45948e+01,    2.95002e+01
   2.45000e+03,    4.41586e+00,    2.45124e+01,    2.95183e+01
   2.46000e+03,    4.41801e+00,    2.44307e+01,    2.95363e+01
   2.47000e+03,    4.42013e+00,    2.43497e+01,    2.95542e+01
   2.48000e+03,    4.42222e+00,    2.42694e+01,    2.95721e+01
   2.49000e+03,    4.42429e+00,    2.41897e+01,    2.95899e+01
   2.50000e+03,    4.42633e+00,    2.41106e+01,    2.96076e+01
   2.51000e+03,    4.42834e+00,    2.40322e+01,    2.96253e+01
   2.52000e+03,    4.43032e+00,    2.39544e+01,    2.96429e+01
   2.53000e+03,    4.43227e+00,    2.38772e+01,    2.96604e+01
   2.54000e+03,    4.43419e+00,    2.38007e+01,    2.96779e+01
   2.55000e+03,    4.43608e+00,    2.37247e+01,    2.96954e+01
   2.56000e+03,    4.43795e+00,    2.36494e+01,    2.97127e+01
   2.57000e+03,    4.43978e+00,    2.35746e+01,    2.97300e+01
   2.58000e+03,    4.44159e+00,    2.35005e+01,    2.97473e+01
   2.59000e+03,    4.44337e+00,    2.34269e+01,    2.97645e+01
   2.60000e+03,    4.44512e+00,    2.33539e+01,    2.97816e+01
   2.61000e+03,    4.44684e+00,    2.32814e+01,    2.97986e+01
   2.62000e+03,    4.44853e+00,    2.32096e+01,    2.98157e+01
   2.63000e+03,    4.45019e+00,    2.31382e+01,    2.98326e+01
   2.64000e+03,    4.45182e+00,    2.30674e+01,    2.98495e+01
   2.65000e+03,    4.45342e+00,    2.29972e+01,    2.98663e+01
   2.66000e+03,    4.45500e+00,    2.29275e+01,    2.98831e+01
   2.67000e+03,    4.45654e+00,    2.28583e+01,    2.98998e+01
   2.68000e+03,    4.45805e+00,    2.27896e+01,    2.99165e+01
   2.69000e+03,    4.45954e+00,    2.27215e+01,    2.99331e+01
   2.70000e+03,    4.46099e+00,    2.26539e+01,    2.99496e+01
   2.71000e+03,    4.46241e+00,    2.25867e+01,    2.99661e+01
   2.72000e+03,    4.46381e+00,    2.25201e+01,    2.99826e+01
   2.73000e+03,    4.46517e+00,    2.24540e+01,    2.99990e+01
   2.74000e+03,    4.46650e+00,    2.23883e+01,    3.00153e+01
   2.75000e+03,    4.46781e+00,    2.23231e+01,    3.00316e+01
   2.76000e+03,    4.46908e+00,    2.22585e+01,    3.00478e+01
   2.77000e+03,    4.47032e+00,    2.21942e+01,    3.00640e+01
   2.78000e+03,    4.47154e+00,    2.21305e+01,    3.00801e+01
   2.79000e+03,    4.47272e+00,    2.20672e+01,    3.00961e+01
   2.80000e+03,    4.47387e+00,    2.20044e+01,    3.01121e+01
   2.81000e+03,    4.47499e+00,    2.19420e+01,    3.01281e+01
   2.82000e+03,    4.47608e+00,    2.18800e+01,    3.01440e+01
   2.83000e+03,    4.47714e+00,    2.18185e+01,    3.01598e+01
   2.84000e+03,    4.47817e+00,    2.17575e+01,    3.01756e+01
   2.85000e+03,    4.47917e+00,    2.16969e+01,    3.01914e+01
   2.86000e+03,    4.48014e+00,    2.16367e+01,    3.02071e+01
   2.87000e+03,    4.48108e+00,    2.15769e+01,    3.02227e+01
   2.88000e+03,    4.48199e+00,    2.15175e+01,    3.02383e+01
   2.89000e+03,    4.48287e+00,    2.14586e+01,    3.02538e+01
   2.90000e+03,    4.48371e+00,    2.14000e+01,    3.02693e+01
   2.91000e+03,    4.48453e+00,    2.13419e+01,    3.02847e+01
   2.92000e+03,    4.48531e+00,    2.12842e+01,    3.03001e+01
   2.93000e+03,    4.48606e+00,    2.12268e+01,    3.03155e+01
   2.94000e+03,    4.48679e+00,    2.11699e+01,    3.03307e+01
   2.95000e+03,    4.48748e+00,    2.11134e+01,    3.03460e+01
   2.96000e+03,    4.48814e+00,    2.10572e+01,    3.03612e+01
   2.97000e+03,    4.48877e+00,    2.10014e+01,    3.03763e+01
   2.98000e+03,    4.48937e+00,    2.09460e+01,    3.03914e+01
   2.99000e+03,    4.48994e+00,    2.08909e+01,    3.04064e+01
   3.00000e+03,    4.49048e+00,    2.08363e+01,    3.04214e+01
   3.01000e+03,    4.49098e+00,    2.07820e+01,    3.04364e+01
   3.02000e+03,    4.49146e+00,    2.07280e+01,    3.04513e+01
   3.03000e+03,    4.49190e+00,    2.06744e+01,    3.04661e+01
   3.04000e+03,    4.49232e+00,    2.06212e+01,    3.04809e+01
   3.05000e+03,    4.49270e+00,    2.05683e+01,    3.04957e+01
   3.06000e+03,    4.49306e+00,    2.05158e+01,    3.05104e+01
   3.07000e+03,    4.49338e+00,    2.04636e+01,    3.05250e+01
   3.08000e+03,    4.49367e+00,    2.04118e+01,    3.05397e+01
   3.09000e+03,    4.49393e+00,    2.03602e+01,    3.05542e+01
   3.10000e+03,    4.49416e+00,    2.03091e+01,    3.05687e+01
   3.11000e+03,    4.49436e+00,    2.02582e+01,    3.05832e+01
   3.12000e+03,    4.49453e+00,    2.02077e+01,    3.05976e+01
   3.13000e+03,    4.49467e+00,    2.01575e+01,    3.06120e+01
   3.14000e+03,    4.49477e+00,    2.01076e+01,    3.06264e+01
   3.15000e+03,    4.49485e+00,    2.00580e+01,    3.06407e+01
   3.16000e+03,    4.49490e+00,    2.00088e+01,    3.06549e+01
   3.17000e+03,    4.49492e+00,    1.99598e+01,    3.06691e+01
   3.18000e+03,    4.49490e+00,    1.99112e+01,    3.06833e+01
   3.19000e+03,    4.49486e+00,    1.98629e+01,    3.06974e+01
   3.20000e+03,    4.49478e+00,    1.98149e+01,    3.07114e+01
   3.21000e+03,    4.49468e+00,    1.97671e+01,    3.07255e+01
   3.22000e+03,    4.49455e+00,    1.97197e+01,    3.07394e+01
   3.23000e+03,    4.49438e+00,    1.96726e+01,    3.07534e+01
   3.24000e+03,    4.49419e+00,    1.96257e+01,    3.07673e+01
   3.25000e+03,    4.49396e+00,    1.95792e+01,    3.07811e+01
   3.26000e+03,    4.49371e+00,    1.95329e+01,    3.07949e+01
   3.27000e+03,    4.49343e+00,    1.94869e+01,    3.08087e+01
   3.28000e+03,    4.49312e+00,    1.94412e+01,    3.08224e+01
   3.29000e+03,    4.49277e+00,    1.93958e+01,    3.08361e+01
   3.30000e+03,    4.49240e+00,    1.93506e+01,    3.08497e+01
   3.31000e+03,    4.49200e+00,    1.93057e+01,    3.08633e+01
   3.32000e+03,    4.49157e+00,    1.92611e+01,    3.08769e+01
   3.33000e+03,    4.49111e+00,    1.92167e+01,    3.08904e+01
   3.34000e+03,    4.49062e+00,    1.91726e+01,    3.09038e+01
   3.35000e+03,    4.49011e+00,    1.91288e+01,    3.09173e+01
   3.36000e+03,    4.48956e+00,    1.90852e+01,    3.09306e+01
   3.37000e+03,    4.48899e+00,    1.90419e+01,    3.09440e+01
   3.38000e+03,    4.48838e+00,    1.89989e+01,    3.09573e+01
   3.39000e+03,    4.48775e+00,    1.89561e+01,    3.09705e+01
   3.40000e+03,    4.48709e+00,    1.89135e+01,    3.09838e+01
   3.41000e+03,    4.48640e+00,    1.88712e+01,    3.09969e+01
   3.42000e+03,    4.48569e+00,    1.88291e+01,    3.10101e+01
   3.43000e+03,    4.48494e+00,    1.87873e+01,    3.10232e+01
   3.44000e+03,    4.48417e+00,    1.87457e+01,    3.10362e+01
   3.45000e+03,    4.48337e+00,    1.87044e+01,    3.10492e+01
   3.46000e+03,    4.48255e+00,    1.86633e+01,    3.10622e+01
   3.47000e+03,    4.48169e+00,    1.86224e+01,    3.10752e+01
   3.48000e+03,    4.48081e+00,    1.85818e+01,    3.10880e+01
   3.49000e+03,    4.47990e+00,    1.85414e+01,    3.11009e+01
   3.50000e+03,    4.47896e+00,    1.85012e+01,    3.11137e+01
   3.51000e+03,    4.47800e+00,    1.84613e+01,    3.11265e+01
   3.52000e+03,    4.47701e+00,    1.84215e+01,    3.11392e+01
   3.53000e+03,    4.47599e+00,    1.83820e+01,    3.11519e+01
   3.54000e+03,    4.47495e+00,    1.83428e+01,    3.11646e+01
   3.55000e+03,    4.47388e+00,    1.83037e+01,    3.11772e+01
   3.56000e+03,    4.47278e+00,    1.82648e+01,    3.11898e+01
   3.57000e+03,    4.47166e+00,    1.82262e+01,    3.12023e+01
   3.58000e+03,    4.47051e+00,    1.81878e+01,    3.12149e+01
   3.59000e+03,    4.46934e+00,    1.81496e+01,    3.12273e+01
   3.60000e+03,    4.46814e+00,    1.81116e+01,    3.12398e+01
   3.61000e+03,    4.46691e+00,    1.80738e+01,    3.12521e+01
   3.62000e+03,    4.46566e+00,    1.80362e+01,    3.12645e+01
   3.63000e+03,    4.46439e+00,    1.79988e+01,    3.12768e+01
   3.64000e+03,    4.46309e+00,    1.79616e+01,    3.12891e+01
   3.65000e+03,    4.46176e+00,    1.79246e+01,    3.13013e+01
   3.66000e+03,    4.46041e+00,    1.78878e+01,    3.13135e+01
   3.67000e+03,    4.45904e+00,    1.78513e+01,    3.13257e+01
   3.68000e+03,    4.45764e+00,    1.78149e+01,    3.13378e+01
   3.69000e+03,    4.45622e+00,    1.77787e+01,    3.13499e+01
   3.70000e+03,    4.45477e+00,    1.77427e+01,    3.13620e+01
   3.71000e+03,    4.45330e+00,    1.77068e+01,    3.13740e+01
   3.72000e+03,    4.45181e+00,    1.76712e+01,    3.13860e+01
   3.73000e+03,    4.45029e+00,    1.76358e+01,    3.13980e+01
   3.74000e+03,    4.44875e+00,    1.76005e+01,    3.14099e+01
   3.75000e+03,    4.44718e+00,    1.75654e+01,    3.14217e+01
   3.76000e+03,    4.44560e+00,    1.75305e+01,    3.14336e+01
   3.77000e+03,    4.44399e+00,    1.74958e+01,    3.14454e+01
   3.78000e+03,    4.44235e+00,    1.74613e+01,    3.14572e+01
   3.79000e+03,    4.44070e+00,    1.74269e+01,    3.14689e+01
   3.80000e+03,    4.43902e+00,    1.73928e+01,    3.14806e+01
   3.81000e+03,    4.43732e+00,    1.73588e+01,    3.14923e+01
   3.82000e+03,    4.43560e+00,    1.73249e+01,    3.15039e+01
   3.83000e+03,    4.43386e+00,    1.72913e+01,    3.15155e+01
   3.84000e+03,    4.43209e+00,    1.72578e+01,    3.15270e+01
   3.85000e+03,    4.43031e+00,    1.72245e+01,    3.15386e+01
   3.86000e+03,    4.42850e+00,    1.71913e+01,    3.15501e+01
   3.87000e+03,    4.42667e+00,    1.71584e+01,    3.15615e+01
   3.88000e+03,    4.42482e+00,    1.71255e+01,    3.15729e+01
   3.89000e+03,    4.42295e+00,    1.70929e+01,    3.15843e+01
   3.90000e+03,    4.42106e+00,    1.70604e+01,    3.15957e+01
   3.91000e+03,    4.41915e+00,    1.70281e+01,    3.16070e+01
   3.92000e+03,    4.41722e+00,    1.69959e+01,    3.16183e+01
   3.93000e+03,    4.41527e+00,    1.69639e+01,    3.16295e+01
   3.94000e+03,    4.41330e+00,    1.69320e+01,    3.16407e+01
   3.95000e+03,    4.41131e+00,    1.69003e+01,    3.16519e+01
   3.96000e+03,    4.40930e+00,    1.68688e+01,    3.16631e+01
   3.97000e+03,    4.40728e+00,    1.68374e+01,    3.16742e+01
   3.98000e+03,    4.40523e+00,    1.68062e+01,    3.16853e+01
   3.99000e+03,    4.40316e+00,    1.67751e+01,    3.16963e+01
   4.00000e+03,    4.40108e+00,    1.67442e+01,    3.17074e+01
   4.01000e+03,    4.39898e+00,    1.67134e+01,    3.17183e+01
   4.02000e+03,    4.39686e+00,    1.66827e+01,    3.17293e+01
   4.03000e+03,    4.39472e+00,    1.66523e+01,    3.17402e+01
   4.04000e+03,    4.39256e+00,    1.66219e+01,    3.17511e+01
   4.05000e+03,    4.39039e+00,    1.65917e+01,    3.17620e+01
   4.06000e+03,    4.38819e+00,    1.65617e+01,    3.17728e+01
   4.07000e+03,    4.38598e+00,    1.65318e+01,    3.17836e+01
   4.08000e+03,    4.38376e+00,    1.65020e+01,    3.17943e+01
   4.09000e+03,    4.38152e+00,    1.64723e+01,    3.18051e+01
   4.10000e+03,    4.37926e+00,    1.64429e+01,    3.18158e+01
   4.11000e+03,    4.37698e+00,    1.64135e+01,    3.18264e+01
   4.12000e+03,    4.37469e+00,    1.63843e+01,    3.18371e+01
   4.13000e+03,    4.37238e+00,    1.63552e+01,    3.18477e+01
   4.14000e+03,    4.37005e+00,    1.63263e+01,    3.18582e+01
   4.15000e+03,    4.36771e+00,    1.62974e+01,    3.18688e+01
   4.16000e+03,    4.36536e+00,    1.62688e+01,    3.18793e+01
   4.17000e+03,    4.36298e+00,    1.62402e+01,    3.18898e+01
   4.18000e+03,    4.36060e+00,    1.62118e+01,    3.19002e+01
   4.19000e+03,    4.35819e+00,    1.61835e+01,    3.19106e+01
   4.20000e+03,    4.35578e+00,    1.61553e+01,    3.19210e+01
   4.21000e+03,    4.35335e+00,    1.61273e+01,    3.19314e+01
   4.22000e+03,    4.35090e+00,    1.60994e+01,    3.19417e+01
   4.23000e+03,    4.34844e+00,    1.60716e+01,    3.19520e+01
   4.24000e+03,    4.34597e+00,    1.60440e+01,    3.19623e+01
   4.25000e+03,    4.34348e+00,    1.60165e+01,    3.19725e+01
   4.26000e+03,    4.34097e+00,    1.59891e+01,    3.19827e+01
   4.27000e+03,    4.33846e+00,    1.59618e+01,    3.19929e+01
   4.28000e+03,    4.33593e+00,    1.59346e+01,    3.20030e+01
   4.29000e+03,    4.33339e+00,    1.59076e+01,    3.20131e+01
   4.30000e+03,    4.33083e+00,    1.58807e+01,    3.20232e+01
   4.31000e+03,    4.32826e+00,    1.58539e+01,    3.20333e+01
   4.32000e+03,    4.32568e+00,    1.58272e+01,    3.20433e+01
   4.33000e+03,    4.32309e+00,    1.58006e+01,    3.20533e+01
   4.34000e+03,    4.32048e+00,    1.57742e+01,    3.20633e+01
   4.35000e+03,    4.31786e+00,    1.57478e+01,    3.20732e+01
   4.36000e+03,    4.31523e+00,    1.57216e+01,    3.20831e+01
   4.37000e+03,    4.31259e+00,    1.56955e+01,    3.20930e+01
   4.38000e+03,    4.30994e+00,    1.56695e+01,    3.21029e+01
   4.39000e+03,    4.30727e+00,    1.56436e+01,    3.21127e+01
   4.40000e+03,    4.30460e+00,    1.56179e+01,    3.21225e+01
   4.41000e+03,    4.30191e+00,    1.55922e+01,    3.21323e+01
   4.42000e+03,    4.29921e+00,    1.55667e+01,    3.21420e+01
   4.43000e+03,    4.29650e+00,    1.55412e+01,    3.21517e+01
   4.44000e+03,    4.29378e+00,    1.55159e+01,    3.21614e+01
   4.45000e+03,    4.29105e+00,    1.54907e+01,    3.21711e+01
   4.46000e+03,    4.28831e+00,    1.54656e+01,    3.21807e+01
   4.47000e+03,    4.28556e+00,    1.54405e+01,    3.21903e+01
   4.48000e+03,    4.28280e+00,    1.54156e+01,    3.21999e+01
   4.49000e+03,    4.28003e+00,    1.53908e+01,    3.22094e+01
   4.50000e+03,    4.27725e+00,    1.53662e+01,    3.22189e+01
   4.51000e+03,    4.27446e+00,    1.53416e+01,    3.22284e+01
   4.52000e+03,    4.27166e+00,    1.53171e+01,    3.22379e+01
   4.53000e+03,    4.26885e+00,    1.52927e+01,    3.22473e+01
   4.54000e+03,    4.26604e+00,    1.52684e+01,    3.22567e+01
   4.55000e+03,    4.26321e+00,    1.52442e+01,    3.22661e+01
   4.56000e+03,    4.26038e+00,    1.52201e+01,    3.22755e+01
   4.57000e+03,    4.25753e+00,    1.51962e+01,    3.22848e+01
   4.58000e+03,    4.25468e+00,    1.51723e+01,    3.22941e+01
   4.59000e+03,    4.25182e+00,    1.51485e+01,    3.23034e+01
   4.60000e+03,    4.24896e+00,    1.51248e+01,    3.23126e+01
   4.61000e+03,    4.24608e+00,    1.51012e+01,    3.23218e+01
   4.62000e+03,    4.24320e+00,    1.50777e+01,    3.23310e+01
   4.63000e+03,    4.24031e+00,    1.50543e+01,    3.23402e+01
   4.64000e+03,    4.23741e+00,    1.50310e+01,    3.23494e+01
   4.65000e+03,    4.23450e+00,    1.50078e+01,    3.23585e+01
   4.66000e+03,    4.23159e+00,    1.49846e+01,    3.23676e+01
   4.67000e+03,    4.22867e+00,    1.49616e+01,    3.23766e+01
   4.68000e+03,    4.22575e+00,    1.49387e+01,    3.23857e+01
   4.69000e+03,    4.22281e+00,    1.49158e+01,    3.23947e+01
   4.70000e+03,    4.21987e+00,    1.48931e+01,    3.24037e+01
   4.71000e+03,    4.21693e+00,    1.48704e+01,    3.24127e+01
   4.72000e+03,    4.21398e+00,    1.48478e+01,    3.24216e+01
   4.73000e+03,    4.21102e+00,    1.48254e+01,    3.24305e+01
   4.74000e+03,    4.20805e+00,    1.48030e+01,    3.24394e+01
   4.75000e+03,    4.20508e+00,    1.47806e+01,    3.24483e+01
   4.76000e+03,    4.20211e+00,    1.47584e+01,    3.24571e+01
   4.77000e+03,    4.19913e+00,    1.47363e+01,    3.24659e+01
   4.78000e+03,    4.19614e+00,    1.47142e+01,    3.24747e+01
   4.79000e+03,    4.19315e+00,    1.46923e+01,    3.24835e+01
   4.80000e+03,    4.19015e+00,    1.46704e+01,    3.24922e+01
   4.81000e+03,    4.18715e+00,    1.46486e+01,    3.25009e+01
   4.82000e+03,    4.18415e+00,    1.46269e+01,    3.25096e+01
   4.83000e+03,    4.18113e+00,    1.46053e+01,    3.25183e+01
   4.84000e+03,    4.17812e+00,    1.45837e+01,    3.25269e+01
   4.85000e+03,    4.17510e+00,    1.45623e+01,    3.25356e+01
   4.86000e+03,    4.17207e+00,    1.45409e+01,    3.25442e+01
   4.87000e+03,    4.16904e+00,    1.45196e+01,    3.25527e+01
   4.88000e+03,    4.16601e+00,    1.44984e+01,    3.25613e+01
   4.89000e+03,    4.16297e+00,    1.44773e+01,    3.25698e+01
   4.90000e+03,    4.15993e+00,    1.44562e+01,    3.25783e+01
   4.91000e+03,    4.15689e+00,    1.44352e+01,    3.25868e+01
   4.92000e+03,    4.15384e+00,    1.44144e+01,    3.25952e+01
   4.93000e+03,    4.15079e+00,    1.43935e+01,    3.26037e+01
   4.94000e+03,    4.14773e+00,    1.43728e+01,    3.26121e+01
   4.95000e+03,    4.14468e+00,    1.43521e+01,    3.26205e+01
   4.96000e+03,    4.14162e+00,    1.43316e+01,    3.26288e+01
   4.97000e+03,    4.13855e+00,    1.43111e+01,    3.26372e+01
   4.98000e+03,    4.13548e+00,    1.42906e+01,    3.26455e+01
   4.99000e+03,    4.13241e+00,    1.42703e+01,    3.26538e+01
   5.00000e+03,    4.12934e+00,    1.42500e+01,    3.26620e+01
   5.01000e+03,    4.12627e+00,    1.42298e+01,    3.26703e+01
   5.02000e+03,    4.12319e+00,    1.42097e+01,    3.26785e+01
   5.03000e+03,    4.12011e+00,    1.41896e+01,    3.26867e+01
   5.04000e+03,    4.11703e+00,    1.41696e+01,    3.26949e+01
   5.05000e+03,    4.11394e+00,    1.41497e+01,    3.27031e+01
   5.06000e+03,    4.11086e+00,    1.41299e+01,    3.27112e+01
   5.07000e+03,    4.10777e+00,    1.41101e+01,    3.27193e+01
   5.08000e+03,    4.10468e+00,    1.40904e+01,    3.27274e+01
   5.09000e+03,    4.10159e+00,    1.40708e+01,    3.27355e+01
   5.10000e+03,    4.09850e+00,    1.40512e+01,    3.27435e+01
   5.11000e+03,    4.09540e+00,    1.40318e+01,    3.27515e+01
   5.12000e+03,    4.09231e+00,    1.40124e+01,    3.27595e+01
   5.13000e+03,    4.08921e+00,    1.39930e+01,    3.27675e+01
   5.14000e+03,    4.08611e+00,    1.39737e+01,    3.27755e+01
   5.15000e+03,    4.08302e+00,    1.39545e+01,    3.27834e+01
   5.16000e+03,    4.07992e+00,    1.39354e+01,    3.27913e+01
   5.17000e+03,    4.07682e+00,    1.39163e+01,    3.27992e+01
   5.18000e+03,    4.07371e+00,    1.38973e+01,    3.28071e+01
   5.19000e+03,    4.07061e+00,    1.38784e+01,    3.28150e+01
   5.20000e+03,    4.06751e+00,    1.38595e+01,    3.28228e+01
   5.21000e+03,    4.06441e+00,    1.38407e+01,    3.28306e+01
   5.22000e+03,    4.06130e+00,    1.38220e+01,    3.28384e+01
   5.23000e+03,    4.05820e+00,    1.38033e+01,    3.28462e+01
   5.24000e+03,    4.05510e+00,    1.37847e+01,    3.28539e+01
   5.25000e+03,    4.05199e+00,    1.37662e+01,    3.28616e+01
   5.26000e+03,    4.04889e+00,    1.37477e+01,    3.28694e+01
   5.27000e+03,    4.04578e+00,    1.37293e+01,    3.28770e+01
   5.28000e+03,    4.04268e+00,    1.37110e+01,    3.28847e+01
   5.29000e+03,    4.03958e+00,    1.36927e+01,    3.28924e+01
   5.30000e+03,    4.03648e+00,    1.36745e+01,    3.29000e+01
   5.31000e+03,    4.03337e+00,    1.36563e+01,    3.29076e+01
   5.32000e+03,    4.03027e+00,    1.36383e+01,    3.29152e+01
   5.33000e+03,    4.02717e+00,    1.36202e+01,    3.29227e+01
   5.34000e+03,    4.02407e+00,    1.36023e+01,    3.29303e+01
   5.35000e+03,    4.02097e+00,    1.35843e+01,    3.29378e+01
   5.36000e+03,    4.01787e+00,    1.35665e+01,    3.29453e+01
   5.37000e+03,    4.01477e+00,    1.35487e+01,    3.29528e+01
   5.38000e+03,    4.01167e+00,    1.35310e+01,    3.29603e+01
   5.39000e+03,    4.00858e+00,    1.35133e+01,    3.29677e+01
   5.40000e+03,    4.00548e+00,    1.34957e+01,    3.29751e+01
   5.41000e+03,    4.00239e+00,    1.34782e+01,    3.29826e+01
   5.42000e+03,    3.99930e+00,    1.34607e+01,    3.29899e+01
   5.43000e+03,    3.99621e+00,    1.34433e+01,    3.29973e+01
   5.44000e+03,    3.99312e+00,    1.34259e+01,    3.30047e+01
   5.45000e+03,    3.99003e+00,    1.34086e+01,    3.30120e+01
   5.46000e+03,    3.98694e+00,    1.33913e+01,    3.30193e+01
   5.47000e+03,    3.98386e+00,    1.33741e+01,    3.30266e+01
   5.48000e+03,    3.98077e+00,    1.33570e+01,    3.30339e+01
   5.49000e+03,    3.97769e+00,    1.33399e+01,    3.30411e+01
   5.50000e+03,    3.97461e+00,    1.33229e+01,    3.30484e+01
   5.51000e+03,    3.97154e+00,    1.33059e+01,    3.30556e+01
   5.52000e+03,    3.96846e+00,    1.32890e+01,    3.30628e+01
   5.53000e+03,    3.96539e+00,    1.32722e+01,    3.30700e+01
   5.54000e+03,    3.96232e+00,    1.32554e+01,    3.30771e+01
   5.55000e+03,    3.95925e+00,    1.32386e+01,    3.30843e+01
   5.56000e+03,    3.95618e+00,    1.32219e+01,    3.30914e+01
   5.57000e+03,    3.95312e+00,    1.32053e+01,    3.30985e+01
   5.58000e+03,    3.95005e+00,    1.31887e+01,    3.31056e+01
   5.59000e+03,    3.94699e+00,    1.31722e+01,    3.31126e+01
   5.60000e+03,    3.94394e+00,    1.31557e+01,    3.31197e+01
   5.61000e+03,    3.94088e+00,    1.31393e+01,    3.31267e+01
   5.62000e+03,    3.93783e+00,    1.31229e+01,    3.31337e+01
   5.63000e+03,    3.93478e+00,    1.31066e+01,    3.31407e+01
   5.64000e+03,    3.93174e+00,    1.30903e+01,    3.31477e+01
   5.65000e+03,    3.92869e+00,    1.30741e+01,    3.31547e+01
   5.66000e+03,    3.92565e+00,    1.30579e+01,    3.31616e+01
   5.67000e+03,    3.92261e+00,    1.30418e+01,    3.31686e+01
   5.68000e+03,    3.91958e+00,    1.30258e+01,    3.31755e+01
   5.69000e+03,    3.91655e+00,    1.30098e+01,    3.31824e+01
   5.70000e+03,    3.91352e+00,    1.29938e+01,    3.31892e+01
   5.71000e+03,    3.91049e+00,    1.29779e+01,    3.31961e+01
   5.72000e+03,    3.90747e+00,    1.29621e+01,    3.32029e+01
   5.73000e+03,    3.90445e+00,    1.29462e+01,    3.32098e+01
   5.74000e+03,    3.90143e+00,    1.29305e+01,    3.32166e+01
   5.75000e+03,    3.89842e+00,    1.29148e+01,    3.32233e+01
   5.76000e+03,    3.89541e+00,    1.28991e+01,    3.32301e+01
   5.77000e+03,    3.89240e+00,    1.28835e+01,    3.32369e+01
   5.78000e+03,    3.88940e+00,    1.28680e+01,    3.32436e+01
   5.79000e+03,    3.88640e+00,    1.28525e+01,    3.32503e+01
   5.80000e+03,    3.88341e+00,    1.28370e+01,    3.32570e+01
   5.81000e+03,    3.88042e+00,    1.28216e+01,    3.32637e+01
   5.82000e+03,    3.87743e+00,    1.28062e+01,    3.32704e+01
   5.83000e+03,    3.87444e+00,    1.27909e+01,    3.32770e+01
   5.84000e+03,    3.87146e+00,    1.27756e+01,    3.32837e+01
   5.85000e+03,    3.86848e+00,    1.27604e+01,    3.32903e+01
   5.86000e+03,    3.86551e+00,    1.27452e+01,    3.32969e+01
   5.87000e+03,    3.86254e+00,    1.27301e+01,    3.33035e+01
   5.88000e+03,    3.85958e+00,    1.27150e+01,    3.33101e+01
   5.89000e+03,    3.85661e+00,    1.27000e+01,    3.33166e+01
   5.90000e+03,    3.85366e+00,    1.26850e+01,    3.33232e+01
   5.91000e+03,    3.85070e+00,    1.26700e+01,    3.33297e+01
   5.92000e+03,    3.84775e+00,    1.26551e+01,    3.33362e+01
   5.93000e+03,    3.84481e+00,    1.26403e+01,    3.33427e+01
   5.94000e+03,    3.84187e+00,    1.26255e+01,    3.33492e+01
   5.95000e+03,    3.83893e+00,    1.26107e+01,    3.33556e+01
   5.96000e+03,    3.83600e+00,    1.25960e+01,    3.33621e+01
   5.97000e+03,    3.83307e+00,    1.25813e+01,    3.33685e+01
   5.98000e+03,    3.83014e+00,    1.25667e+01,    3.33749e+01
   5.99000e+03,    3.82722e+00,    1.25521e+01,    3.33813e+01
   6.00000e+03,    3.82431e+00,    1.25376e+01,    3.33877e+01
   6.01000e+03,    3.82139e+00,    1.25231e+01,    3.33941e+01
   6.02000e+03,    3.81849e+00,    1.25086e+01,    3.34004e+01
   6.03000e+03,    3.81558e+00,    1.24942e+01,    3.34067e+01
   6.04000e+03,    3.81268e+00,    1.24798e+01,    3.34131e+01
   6.05000e+03,    3.80979e+00,    1.24655e+01,    3.34194e+01
   6.06000e+03,    3.80690e+00,    1.24512e+01,    3.34257e+01
   6.07000e+03,    3.80402e+00,    1.24370e+01,    3.34319e+01
   6.08000e+03,    3.80114e+00,    1.24228e+01,    3.34382e+01
   6.09000e+03,    3.79826e+00,    1.24086e+01,    3.34444e+01
   6.10000e+03,    3.79539e+00,    1.23945e+01,    3.34507e+01
   6.11000e+03,    3.79252e+00,    1.23804e+01,    3.34569e+01
   6.12000e+03,    3.78966e+00,    1.23664e+01,    3.34631e+01
   6.13000e+03,    3.78680e+00,    1.23524e+01,    3.34693e+01
   6.14000e+03,    3.78395e+00,    1.23384e+01,    3.34754e+01
   6.15000e+03,    3.78110e+00,    1.23245e+01,    3.34816e+01
   6.16000e+03,    3.77826e+00,    1.23106e+01,    3.34877e+01
   6.17000e+03,    3.77542e+00,    1.22968e+01,    3.34939e+01
   6.18000e+03,    3.77259e+00,    1.22830e+01,    3.35000e+01
   6.19000e+03,    3.76976e+00,    1.22693e+01,    3.35061e+01
   6.20000e+03,    3.76694e+00,    1.22556e+01,    3.35121e+01
   6.21000e+03,    3.76412e+00,    1.22419e+01,    3.35182e+01
   6.22000e+03,    3.76131e+00,    1.22282e+01,    3.35243e+01
   6.23000e+03,    3.75850e+00,    1.22147e+01,    3.35303e+01
   6.24000e+03,    3.75570e+00,    1.22011e+01,    3.35363e+01
   6.25000e+03,    3.75290e+00,    1.21876e+01,    3.35423e+01
   6.26000e+03,    3.75010e+00,    1.21741e+01,    3.35483e+01
   6.27000e+03,    3.74731e+00,    1.21607e+01,    3.35543e+01
   6.28000e+03,    3.74453e+00,    1.21473e+01,    3.35603e+01
   6.29000e+03,    3.74175e+00,    1.21339e+01,    3.35663e+01
   6.30000e+03,    3.73898e+00,    1.21206e+01,    3.35722e+01
   6.31000e+03,    3.73621e+00,    1.21073e+01,    3.35781e+01
   6.32000e+03,    3.73345e+00,    1.20941e+01,    3.35840e+01
   6.33000e+03,    3.73069e+00,    1.20808e+01,    3.35899e+01
   6.34000e+03,    3.72794e+00,    1.20677e+01,    3.35958e+01
   6.35000e+03,    3.72519e+00,    1.20545e+01,    3.36017e+01
   6.36000e+03,    3.72245e+00,    1.20414e+01,    3.36076e+01
   6.37000e+03,    3.71971e+00,    1.20284e+01,    3.36134e+01
   6.38000e+03,    3.71698e+00,    1.20154e+01,    3.36192e+01
   6.39000e+03,    3.71425e+00,    1.20024e+01,    3.36251e+01
   6.40000e+03,    3.71153e+00,    1.19894e+01,    3.36309e+01
   6.41000e+03,    3.70881e+00,    1.19765e+01,    3.36367e+01
   6.42000e+03,    3.70610e+00,    1.19636e+01,    3.36424e+01
   6.43000e+03,    3.70340e+00,    1.19508e+01,    3.36482e+01
   6.44000e+03,    3.70070e+00,    1.19380e+01,    3.36540e+01
   6.45000e+03,    3.69800e+00,    1.19252e+01,    3.36597e+01
   6.46000e+03,    3.69531e+00,    1.19125e+01,    3.36654e+01
   6.47000e+03,    3.69263e+00,    1.18997e+01,    3.36711e+01
   6.48000e+03,    3.68995e+00,    1.18871e+01,    3.36768e+01
   6.49000e+03,    3.68728e+00,    1.18744e+01,    3.36825e+01
   6.50000e+03,    3.68461e+00,    1.18619e+01,    3.36882e+01
   6.51000e+03,    3.68195e+00,    1.18493e+01,    3.36939e+01
   6.52000e+03,    3.67929e+00,    1.18368e+01,    3.36995e+01
   6.53000e+03,    3.67664e+00,    1.18243e+01,    3.37051e+01
   6.54000e+03,    3.67399e+00,    1.18118e+01,    3.37108e+01
   6.55000e+03,    3.67135e+00,    1.17994e+01,    3.37164e+01
   6.56000e+03,    3.66871e+00,    1.17870e+01,    3.37220e+01
   6.57000e+03,    3.66608e+00,    1.17746e+01,    3.37276e+01
   6.58000e+03,    3.66346e+00,    1.17623e+01,    3.37331e+01
   6.59000e+03,    3.66084e+00,    1.17500e+01,    3.37387e+01
   6.60000e+03,    3.65822e+00,    1.17378e+01,    3.37443e+01
   6.61000e+03,    3.65562e+00,    1.17255e+01,    3.37498e+01
   6.62000e+03,    3.65301e+00,    1.17133e+01,    3.37553e+01
   6.63000e+03,    3.65042e+00,    1.17012e+01,    3.37608e+01
   6.64000e+03,    3.64783e+00,    1.16890e+01,    3.37663e+01
   6.65000e+03,    3.64524e+00,    1.16770e+01,    3.37718e+01
   6.66000e+03,    3.64266e+00,    1.16649e+01,    3.37773e+01
   6.67000e+03,    3.64008e+00,    1.16529e+01,    3.37827e+01
   6.68000e+03,    3.63751e+00,    1.16409e+01,    3.37882e+01
   6.69000e+03,    3.63495e+00,    1.16289e+01,    3.37936e+01
   6.70000e+03,    3.63239e+00,    1.16170e+01,    3.37991e+01
   6.71000e+03,    3.62984e+00,    1.16051e+01,    3.38045e+01
   6.72000e+03,    3.62729e+00,    1.15932e+01,    3.38099e+01
   6.73000e+03,    3.62475e+00,    1.15814e+01,    3.38153e+01
   6.74000e+03,    3.62221e+00,    1.15696e+01,    3.38207e+01
   6.75000e+03,    3.61968e+00,    1.15578e+01,    3.38260e+01
   6.76000e+03,    3.61716e+00,    1.15460e+01,    3.38314e+01
   6.77000e+03,    3.61464e+00,    1.15343e+01,    3.38367e+01
   6.78000e+03,    3.61212e+00,    1.15226e+01,    3.38421e+01
   6.79000e+03,    3.60961e+00,    1.15110e+01,    3.38474e+01
   6.80000e+03,    3.60711e+00,    1.14994e+01,    3.38527e+01
   6.81000e+03,    3.60461e+00,    1.14878e+01,    3.38580e+01
   6.82000e+03,    3.60212e+00,    1.14762e+01,    3.38633e+01
   6.83000e+03,    3.59964e+00,    1.14647e+01,    3.38686e+01
   6.84000e+03,    3.59716e+00,    1.14532e+01,    3.38738e+01
   6.85000e+03,    3.59468e+00,    1.14417e+01,    3.38791e+01
   6.86000e+03,    3.59221e+00,    1.14303e+01,    3.38843e+01
   6.87000e+03,    3.58975e+00,    1.14189e+01,    3.38895e+01
   6.88000e+03,    3.58729e+00,    1.14075e+01,    3.38948e+01
   6.89000e+03,    3.58484e+00,    1.13961e+01,    3.39000e+01
   6.90000e+03,    3.58239e+00,    1.13848e+01,    3.39052e+01
   6.91000e+03,    3.57995e+00,    1.13735e+01,    3.39104e+01
   6.92000e+03,    3.57752e+00,    1.13622e+01,    3.39155e+01
   6.93000e+03,    3.57509e+00,    1.13510e+01,    3.39207e+01
   6.94000e+03,    3.57266e+00,    1.13398e+01,    3.39259e+01
   6.95000e+03,    3.57024e+00,    1.13286e+01,    3.39310e+01
   6.96000e+03,    3.56783e+00,    1.13175e+01,    3.39361e+01
   6.97000e+03,    3.56542e+00,    1.13064e+01,    3.39412e+01
   6.98000e+03,    3.56302e+00,    1.12953e+01,    3.39464e+01
   6.99000e+03,    3.56062e+00,    1.12842e+01,    3.39515e+01
   7.00000e+03,    3.55823e+00,    1.12732e+01,    3.39565e+01
   7.01000e+03,    3.55585e+00,    1.12622e+01,    3.39616e+01
   7.02000e+03,    3.55347e+00,    1.12512e+01,    3.39667e+01
   7.03000e+03,    3.55109e+00,    1.12402e+01,    3.39717e+01
   7.04000e+03,    3.54873e+00,    1.12293e+01,    3.39768e+01
   7.05000e+03,    3.54636e+00,    1.12184e+01,    3.39818e+01
   7.06000e+03,    3.54401e+00,    1.12075e+01,    3.39869e+01
   7.07000e+03,    3.54165e+00,    1.11967e+01,    3.39919e+01
   7.08000e+03,    3.53931e+00,    1.11859e+01,    3.39969e+01
   7.09000e+03,    3.53697e+00,    1.11751e+01,    3.40019e+01
   7.10000e+03,    3.53463e+00,    1.11643e+01,    3.40069e+01
   7.11000e+03,    3.53230e+00,    1.11536e+01,    3.40118e+01
   7.12000e+03,    3.52998e+00,    1.11429e+01,    3.40168e+01
   7.13000e+03,    3.52766e+00,    1.11322e+01,    3.40217e+01
   7.14000e+03,    3.52535e+00,    1.11216e+01,    3.40267e+01
   7.15000e+03,    3.52304e+00,    1.11109e+01,    3.40316e+01
   7.16000e+03,    3.52074e+00,    1.11003e+01,    3.40365e+01
   7.17000e+03,    3.51845e+00,    1.10898e+01,    3.40414e+01
   7.18000e+03,    3.51616e+00,    1.10792e+01,    3.40464e+01
   7.19000e+03,    3.51387e+00,    1.10687e+01,    3.40512e+01
   7.20000e+03,    3.51159e+00,    1.10582e+01,    3.40561e+01
   7.21000e+03,    3.50932e+00,    1.10477e+01,    3.40610e+01
   7.22000e+03,    3.50705e+00,    1.10373e+01,    3.40659e+01
   7.23000e+03,    3.50479e+00,    1.10269e+01,    3.40707e+01
   7.24000e+03,    3.50253e+00,    1.10165e+01,    3.40756e+01
   7.25000e+03,    3.50028e+00,    1.10061e+01,    3.40804e+01
   7.26000e+03,    3.49803e+00,    1.09958e+01,    3.40852e+01
   7.27000e+03,    3.49579e+00,    1.09855e+01,    3.40900e+01
   7.28000e+03,    3.49356e+00,    1.09752e+01,    3.40948e+01
   7.29000e+03,    3.49133e+00,    1.09649e+01,    3.40996e+01
   7.30000e+03,    3.48910e+00,    1.09547e+01,    3.41044e+01
   7.31000e+03,    3.48689e+00,    1.09445e+01,    3.41092e+01
   7.32000e+03,    3.48467e+00,    1.09343e+01,    3.41139e+01
   7.33000e+03,    3.48246e+00,    1.09241e+01,    3.41187e+01
   7.34000e+03,    3.48026e+00,    1.09140e+01,    3.41234e+01
   7.35000e+03,    3.47807e+00,    1.09039e+01,    3.41282e+01
   7.36000e+03,    3.47587e+00,    1.08938e+01,    3.41329e+01
   7.37000e+03,    3.47369e+00,    1.08837e+01,    3.41376e+01
   7.38000e+03,    3.47151e+00,    1.08737e+01,    3.41423e+01
   7.39000e+03,    3.46933e+00,    1.08636e+01,    3.41470e+01
   7.40000e+03,    3.46716e+00,    1.08536e+01,    3.41517e+01
   7.41000e+03,    3.46500e+00,    1.08437e+01,    3.41564e+01
   7.42000e+03,    3.46284e+00,    1.08337e+01,    3.41611e+01
   7.43000e+03,    3.46069e+00,    1.08238e+01,    3.41657e+01
   7.44000e+03,    3.45854e+00,    1.08139e+01,    3.41704e+01
   7.45000e+03,    3.45640e+00,    1.08040e+01,    3.41750e+01
   7.46000e+03,    3.45426e+00,    1.07942e+01,    3.41797e+01
   7.47000e+03,    3.45213e+00,    1.07844e+01,    3.41843e+01
   7.48000e+03,    3.45000e+00,    1.07745e+01,    3.41889e+01
   7.49000e+03,    3.44788e+00,    1.07648e+01,    3.41935e+01
   7.50000e+03,    3.44577e+00,    1.07550e+01,    3.41981e+01
   7.51000e+03,    3.44366e+00,    1.07453e+01,    3.42027e+01
   7.52000e+03,    3.44155e+00,    1.07356e+01,    3.42073e+01
   7.53000e+03,    3.43945e+00,    1.07259e+01,    3.42119e+01
   7.54000e+03,    3.43736e+00,    1.07162e+01,    3.42164e+01
   7.55000e+03,    3.43527e+00,    1.07066e+01,    3.42210e+01
   7.56000e+03,    3.43319e+00,    1.06970e+01,    3.42255e+01
   7.57000e+03,    3.43111e+00,    1.06874e+01,    3.42301e+01
   7.58000e+03,    3.42904e+00,    1.06778e+01,    3.42346e+01
   7.59000e+03,    3.42697e+00,    1.06682e+01,    3.42391e+01
   7.60000e+03,    3.42491e+00,    1.06587e+01,    3.42436e+01
   7.61000e+03,    3.42285e+00,    1.06492e+01,    3.42481e+01
   7.62000e+03,    3.42080e+00,    1.06397e+01,    3.42526e+01
   7.63000e+03,    3.41875e+00,    1.06302e+01,    3.42571e+01
   7.64000e+03,    3.41671e+00,    1.06208e+01,    3.42616e+01
   7.65000e+03,    3.41467e+00,    1.06114e+01,    3.42661e+01
   7.66000e+03,    3.41264e+00,    1.06020e+01,    3.42705e+01
   7.67000e+03,    3.41062e+00,    1.05926e+01,    3.42750e+01
   7.68000e+03,    3.40860e+00,    1.05833e+01,    3.42794e+01
   7.69000e+03,    3.40658e+00,    1.05739e+01,    3.42838e+01
   7.70000e+03,    3.40457e+00,    1.05646e+01,    3.42883e+01
   7.71000e+03,    3.40257e+00,    1.05553e+01,    3.42927e+01
   7.72000e+03,    3.40057e+00,    1.05461e+01,    3.42971e+01
   7.73000e+03,    3.39857e+00,    1.05368e+01,    3.43015e+01
   7.74000e+03,    3.39658e+00,    1.05276e+01,    3.43059e+01
   7.75000e+03,    3.39460e+00,    1.05184e+01,    3.43103e+01
   7.76000e+03,    3.39262e+00,    1.05092e+01,    3.43146e+01
   7.77000e+03,    3.39064e+00,    1.05001e+01,    3.43190e+01
   7.78000e+03,    3.38868e+00,    1.04909e+01,    3.43234e+01
   7.79000e+03,    3.38671e+00,    1.04818e+01,    3.43277e+01
   7.80000e+03,    3.38475e+00,    1.04727e+01,    3.43321e+01
   7.81000e+03,    3.38280e+00,    1.04636e+01,    3.43364e+01
   7.82000e+03,    3.38085e+00,    1.04546e+01,    3.43407e+01
   7.83000e+03,    3.37891e+00,    1.04455e+01,    3.43450e+01
   7.84000e+03,    3.37697e+00,    1.04365e+01,    3.43494e+01
   7.85000e+03,    3.37504e+00,    1.04275e+01,    3.43537e+01
   7.86000e+03,    3.37311e+00,    1.04185e+01,    3.43580e+01
   7.87000e+03,    3.37118e+00,    1.04096e+01,    3.43622e+01
   7.88000e+03,    3.36927e+00,    1.04007e+01,    3.43665e+01
   7.89000e+03,    3.36735e+00,    1.03917e+01,    3.43708e+01
   7.90000e+03,    3.36544e+00,    1.03829e+01,    3.43751e+01
   7.91000e+03,    3.36354e+00,    1.03740e+01,    3.43793e+01
   7.92000e+03,    3.36164e+00,    1.03651e+01,    3.43836e+01
   7.93000e+03,    3.35975e+00,    1.03563e+01,    3.43878e+01
   7.94000e+03,    3.35786e+00,    1.03475e+01,    3.43920e+01
   7.95000e+03,    3.35598e+00,    1.03387e+01,    3.43963e+01
   7.96000e+03,    3.35410e+00,    1.03299e+01,    3.44005e+01
   7.97000e+03,    3.35223e+00,    1.03212e+01,    3.44047e+01
   7.98000e+03,    3.35036e+00,    1.03124e+01,    3.44089e+01
   7.99000e+03,    3.34849e+00,    1.03037e+01,    3.44131e+01
   8.00000e+03,    3.34663e+00,    1.02950e+01,    3.44173e+01
   8.01000e+03,    3.34478e+00,    1.02863e+01,    3.44215e+01
   8.02000e+03,    3.34293e+00,    1.02777e+01,    3.44256e+01
   8.03000e+03,    3.34109e+00,    1.02690e+01,    3.44298e+01
   8.04000e+03,    3.33925e+00,    1.02604e+01,    3.44339e+01
   8.05000e+03,    3.33741e+00,    1.02518e+01,    3.44381e+01
   8.06000e+03,    3.33558e+00,    1.02433e+01,    3.44422e+01
   8.07000e+03,    3.33376e+00,    1.02347e+01,    3.44464e+01
   8.08000e+03,    3.33194e+00,    1.02261e+01,    3.44505e+01
   8.09000e+03,    3.33012e+00,    1.02176e+01,    3.44546e+01
   8.10000e+03,    3.32831e+00,    1.02091e+01,    3.44587e+01
   8.11000e+03,    3.32651e+00,    1.02006e+01,    3.44628e+01
   8.12000e+03,    3.32471e+00,    1.01922e+01,    3.44669e+01
   8.13000e+03,    3.32291e+00,    1.01837e+01,    3.44710e+01
   8.14000e+03,    3.32112e+00,    1.01753e+01,    3.44751e+01
   8.15000e+03,    3.31933e+00,    1.01669e+01,    3.44792e+01
   8.16000e+03,    3.31755e+00,    1.01585e+01,    3.44833e+01
   8.17000e+03,    3.31577e+00,    1.01501e+01,    3.44873e+01
   8.18000e+03,    3.31400e+00,    1.01418e+01,    3.44914e+01
   8.19000e+03,    3.31223e+00,    1.01334e+01,    3.44954e+01
   8.20000e+03,    3.31047e+00,    1.01251e+01,    3.44995e+01
   8.21000e+03,    3.30871e+00,    1.01168e+01,    3.45035e+01
   8.22000e+03,    3.30696e+00,    1.01085e+01,    3.45075e+01
   8.23000e+03,    3.30521e+00,    1.01003e+01,    3.45115e+01
   8.24000e+03,    3.30346e+00,    1.00920e+01,    3.45156e+01
   8.25000e+03,    3.30172e+00,    1.00838e+01,    3.45196e+01
   8.26000e+03,    3.29999e+00,    1.00756e+01,    3.45236e+01
   8.27000e+03,    3.29826e+00,    1.00674e+01,    3.45276e+01
   8.28000e+03,    3.29653e+00,    1.00592e+01,    3.45315e+01
   8.29000e+03,    3.29481e+00,    1.00510e+01,    3.45355e+01
   8.30000e+03,    3.29309e+00,    1.00429e+01,    3.45395e+01
   8.31000e+03,    3.29138e+00,    1.00348e+01,    3.45434e+01
   8.32000e+03,    3.28967e+00,    1.00267e+01,    3.45474e+01
   8.33000e+03,    3.28797e+00,    1.00186e+01,    3.45514e+01
   8.34000e+03,    3.28627e+00,    1.00105e+01,    3.45553e+01
   8.35000e+03,    3.28458e+00,    1.00024e+01,    3.45592e+01
   8.36000e+03,    3.28289e+00,    9.99441e+00,    3.45632e+01
   8.37000e+03,    3.28120e+00,    9.98639e+00,    3.45671e+01
   8.38000e+03,    3.27952e+00,    9.97839e+00,    3.45710e+01
   8.39000e+03,    3.27785e+00,    9.97040e+00,    3.45749e+01
   8.40000e+03,    3.27618e+00,    9.96244e+00,    3.45788e+01
   8.41000e+03,    3.27451e+00,    9.95448e+00,    3.45827e+01
   8.42000e+03,    3.27285e+00,    9.94655e+00,    3.45866e+01
   8.43000e+03,    3.27119e+00,    9.93863e+00,    3.45905e+01
   8.44000e+03,    3.26953e+00,    9.93073e+00,    3.45944e+01
   8.45000e+03,    3.26788e+00,    9.92285e+00,    3.45982e+01
   8.46000e+03,    3.26624e+00,    9.91498e+00,    3.46021e+01
   8.47000e+03,    3.26460e+00,    9.90713e+00,    3.46060e+01
   8.48000e+03,    3.26296e+00,    9.89930e+00,    3.46098e+01
   8.49000e+03,    3.26133e+00,    9.89148e+00,    3.46137e+01
   8.50000e+03,    3.25970e+00,    9.88368e+00,    3.46175e+01
   8.51000e+03,    3.25808e+00,    9.87589e+00,    3.46213e+01
   8.52000e+03,    3.25646e+00,    9.86812e+00,    3.46252e+01
   8.53000e+03,    3.25484e+00,    9.86037e+00,    3.46290e+01
   8.54000e+03,    3.25323e+00,    9.85264e+00,    3.46328e+01
   8.55000e+03,    3.25163e+00,    9.84492e+00,    3.46366e+01
   8.56000e+03,    3.25003e+00,    9.83721e+00,    3.46404e+01
   8.57000e+03,    3.24843e+00,    9.82953e+00,    3.46442e+01
   8.58000e+03,    3.24684e+00,    9.82185e+00,    3.46480e+01
   8.59000e+03,    3.24525e+00,    9.81420e+00,    3.46518e+01
   8.60000e+03,    3.24366e+00,    9.80656e+00,    3.46555e+01
   8.61000e+03,    3.24208e+00,    9.79894e+00,    3.46593e+01
   8.62000e+03,    3.24051e+00,    9.79133e+00,    3.46631e+01
   8.63000e+03,    3.23893e+00,    9.78374e+00,    3.46668e+01
   8.64000e+03,    3.23737e+00,    9.77616e+00,    3.46706e+01
   8.65000e+03,    3.23580e+00,    9.76860e+00,    3.46743e+01
   8.66000e+03,    3.23424e+00,    9.76106e+00,    3.46780e+01
   8.67000e+03,    3.23269e+00,    9.75353e+00,    3.46818e+01
   8.68000e+03,    3.23114e+00,    9.74601e+00,    3.46855e+01
   8.69000e+03,    3.22959e+00,    9.73852e+00,    3.46892e+01
   8.70000e+03,    3.22805e+00,    9.73103e+00,    3.46929e+01
   8.71000e+03,    3.22651e+00,    9.72357e+00,    3.46966e+01
   8.72000e+03,    3.22497e+00,    9.71612e+00,    3.47003e+01
   8.73000e+03,    3.22344e+00,    9.70868e+00,    3.47040e+01
   8.74000e+03,    3.22192e+00,    9.70126e+00,    3.47077e+01
   8.75000e+03,    3.22039e+00,    9.69385e+00,    3.47114e+01
   8.76000e+03,    3.21888e+00,    9.68646e+00,    3.47151e+01
   8.77000e+03,    3.21736e+00,    9.67909e+00,    3.47188e+01
   8.78000e+03,    3.21585e+00,    9.67173e+00,    3.47224e+01
   8.79000e+03,    3.21435e+00,    9.66438e+00,    3.47261e+01
   8.80000e+03,    3.21284e+00,    9.65705e+00,    3.47297e+01
   8.81000e+03,    3.21135e+00,    9.64973e+00,    3.47334e+01
   8.82000e+03,    3.20985e+00,    9.64243e+00,    3.47370e+01
   8.83000e+03,    3.20836e+00,    9.63515e+00,    3.47407e+01
   8.84000e+03,    3.20688e+00,    9.62788e+00,    3.47443e+01
   8.85000e+03,    3.20539e+00,    9.62062e+00,    3.47479e+01
   8.86000e+03,    3.20392e+00,    9.61338e+00,    3.47515e+01
   8.87000e+03,    3.20244e+00,    9.60615e+00,    3.47552e+01
   8.88000e+03,    3.20097e+00,    9.59894e+00,    3.47588e+01
   8.89000e+03,    3.19951e+00,    9.59174e+00,    3.47624e+01
   8.90000e+03,    3.19804e+00,    9.58456e+00,    3.47660e+01
   8.91000e+03,    3.19658e+00,    9.57739e+00,    3.47696e+01
   8.92000e+03,    3.19513e+00,    9.57024e+00,    3.47731e+01
   8.93000e+03,    3.19368e+00,    9.56310e+00,    3.47767e+01
   8.94000e+03,    3.19223e+00,    9.55597e+00,    3.47803e+01
   8.95000e+03,    3.19079e+00,    9.54886e+00,    3.47839e+01
   8.96000e+03,    3.18935e+00,    9.54176e+00,    3.47874e+01
   8.97000e+03,    3.18792e+00,    9.53468e+00,    3.47910e+01
   8.98000e+03,    3.18648e+00,    9.52761e+00,    3.47945e+01
   8.99000e+03,    3.18506e+00,    9.52056e+00,    3.47981e+01
   9.00000e+03,    3.18363e+00,    9.51352e+00,    3.48016e+01
   9.01000e+03,    3.18221e+00,    9.50649e+00,    3.48051e+01
   9.02000e+03,    3.18080e+00,    9.49948e+00,    3.48087e+01
   9.03000e+03,    3.17938e+00,    9.49248e+00,    3.48122e+01
   9.04000e+03,    3.17798e+00,    9.48550e+00,    3.48157e+01
   9.05000e+03,    3.17657e+00,    9.47853e+00,    3.48192e+01
   9.06000e+03,    3.17517e+00,    9.47157e+00,    3.48227e+01
   9.07000e+03,    3.17377e+00,    9.46463e+00,    3.48262e+01
   9.08000e+03,    3.17238e+00,    9.45770e+00,    3.48297e+01
   9.09000e+03,    3.17099e+00,    9.45078e+00,    3.48332e+01
   9.10000e+03,    3.16960e+00,    9.44388e+00,    3.48367e+01
   9.11000e+03,    3.16822e+00,    9.43699e+00,    3.48402e+01
   9.12000e+03,    3.16684e+00,    9.43012e+00,    3.48437e+01
   9.13000e+03,    3.16547e+00,    9.42326e+00,    3.48471e+01
   9.14000e+03,    3.16410e+00,    9.41641e+00,    3.48506e+01
   9.15000e+03,    3.16273e+00,    9.40958e+00,    3.48541e+01
   9.16000e+03,    3.16136e+00,    9.40276e+00,    3.48575e+01
   9.17000e+03,    3.16000e+00,    9.39595e+00,    3.48610e+01
   9.18000e+03,    3.15865e+00,    9.38916e+00,    3.48644e+01
   9.19000e+03,    3.15729e+00,    9.38238e+00,    3.48678e+01
   9.20000e+03,    3.15594e+00,    9.37561e+00,    3.48713e+01
   9.21000e+03,    3.15460e+00,    9.36885e+00,    3.48747e+01
   9.22000e+03,    3.15326e+00,    9.36211e+00,    3.48781e+01
   9.23000e+03,    3.15192e+00,    9.35539e+00,    3.48815e+01
   9.24000e+03,    3.15058e+00,    9.34867e+00,    3.48850e+01
   9.25000e+03,    3.14925e+00,    9.34197e+00,    3.48884e+01
   9.26000e+03,    3.14792e+00,    9.33528e+00,    3.48918e+01
   9.27000e+03,    3.14660e+00,    9.32861e+00,    3.48952e+01
   9.28000e+03,    3.14528e+00,    9.32194e+00,    3.48986e+01
   9.29000e+03,    3.14396e+00,    9.31529e+00,    3.49019e+01
   9.30000e+03,    3.14265e+00,    9.30866e+00,    3.49053e+01
   9.31000e+03,    3.14133e+00,    9.30203e+00,    3.49087e+01
   9.32000e+03,    3.14003e+00,    9.29542e+00,    3.49121e+01
   9.33000e+03,    3.13872e+00,    9.28883e+00,    3.49154e+01
   9.34000e+03,    3.13742e+00,    9.28224e+00,    3.49188e+01
   9.35000e+03,    3.13613e+00,    9.27567e+00,    3.49222e+01
   9.36000e+03,    3.13483e+00,    9.26911e+00,    3.49255e+01
   9.37000e+03,    3.13354e+00,    9.26256e+00,    3.49289e+01
   9.38000e+03,    3.13226e+00,    9.25603e+00,    3.49322e+01
   9.39000e+03,    3.13097e+00,    9.24950e+00,    3.49355e+01
   9.40000e+03,    3.12970e+00,    9.24299e+00,    3.49389e+01
   9.41000e+03,    3.12842e+00,    9.23650e+00,    3.49422e+01
   9.42000e+03,    3.12715e+00,    9.23001e+00,    3.49455e+01
   9.43000e+03,    3.12588e+00,    9.22354e+00,    3.49488e+01
   9.44000e+03,    3.12461e+00,    9.21708e+00,    3.49521e+01
   9.45000e+03,    3.12335e+00,    9.21063e+00,    3.49555e+01
   9.46000e+03,    3.12209e+00,    9.20420e+00,    3.49588e+01
   9.47000e+03,    3.12083e+00,    9.19777e+00,    3.49621e+01
   9.48000e+03,    3.11958e+00,    9.19136e+00,    3.49654e+01
   9.49000e+03,    3.11833e+00,    9.18496e+00,    3.49686e+01
   9.50000e+03,    3.11709e+00,    9.17858e+00,    3.49719e+01
   9.51000e+03,    3.11584e+00,    9.17220e+00,    3.49752e+01
   9.52000e+03,    3.11460e+00,    9.16584e+00,    3.49785e+01
   9.53000e+03,    3.11337e+00,    9.15949e+00,    3.49817e+01
   9.54000e+03,    3.11213e+00,    9.15315e+00,    3.49850e+01
   9.55000e+03,    3.11091e+00,    9.14682e+00,    3.49883e+01
   9.56000e+03,    3.10968e+00,    9.14051e+00,    3.49915e+01
   9.57000e+03,    3.10846e+00,    9.13421e+00,    3.49948e+01
   9.58000e+03,    3.10724e+00,    9.12792e+00,    3.49980e+01
   9.59000e+03,    3.10602e+00,    9.12164e+00,    3.50013e+01
   9.60000e+03,    3.10481e+00,    9.11537e+00,    3.50045e+01
   9.61000e+03,    3.10360e+00,    9.10912e+00,    3.50077e+01
   9.62000e+03,    3.10239e+00,    9.10287e+00,    3.50110e+01
   9.63000e+03,    3.10119e+00,    9.09664e+00,    3.50142e+01
   9.64000e+03,    3.09998e+00,    9.09042e+00,    3.50174e+01
   9.65000e+03,    3.09879e+00,    9.08421e+00,    3.50206e+01
   9.66000e+03,    3.09759e+00,    9.07802e+00,    3.50238e+01
   9.67000e+03,    3.09640e+00,    9.07183e+00,    3.50270e+01
   9.68000e+03,    3.09521e+00,    9.06566e+00,    3.50302e+01
   9.69000e+03,    3.09403e+00,    9.05950e+00,    3.50334e+01
   9.70000e+03,    3.09285e+00,    9.05334e+00,    3.50366e+01
   9.71000e+03,    3.09167e+00,    9.04721e+00,    3.50398e+01
   9.72000e+03,    3.09049e+00,    9.04108e+00,    3.50430e+01
   9.73000e+03,    3.08932e+00,    9.03496e+00,    3.50462e+01
   9.74000e+03,    3.08815e+00,    9.02886e+00,    3.50493e+01
   9.75000e+03,    3.08699e+00,    9.02276e+00,    3.50525e+01
   9.76000e+03,    3.08582e+00,    9.01668e+00,    3.50557e+01
   9.77000e+03,    3.08466e+00,    9.01061e+00,    3.50588e+01
   9.78000e+03,    3.08351e+00,    9.00455e+00,    3.50620e+01
   9.79000e+03,    3.08235e+00,    8.99850e+00,    3.50651e+01
   9.80000e+03,    3.08120e+00,    8.99246e+00,    3.50683e+01
   9.81000e+03,    3.08005e+00,    8.98644e+00,    3.50714e+01
   9.82000e+03,    3.07891e+00,    8.98042e+00,    3.50746e+01
   9.83000e+03,    3.07777e+00,    8.97442e+00,    3.50777e+01
   9.84000e+03,    3.07663e+00,    8.96842e+00,    3.50808e+01
   9.85000e+03,    3.07549e+00,    8.96244e+00,    3.50839e+01
   9.86000e+03,    3.07436e+00,    8.95647e+00,    3.50871e+01
   9.87000e+03,    3.07323e+00,    8.95051e+00,    3.50902e+01
   9.88000e+03,    3.07210e+00,    8.94456e+00,    3.50933e+01
   9.89000e+03,    3.07098e+00,    8.93862e+00,    3.50964e+01
   9.90000e+03,    3.06986e+00,    8.93270e+00,    3.50995e+01
   9.91000e+03,    3.06874e+00,    8.92678e+00,    3.51026e+01
   9.92000e+03,    3.06762e+00,    8.92087e+00,    3.51057e+01
   9.93000e+03,    3.06651e+00,    8.91498e+00,    3.51088e+01
   9.94000e+03,    3.06540e+00,    8.90909e+00,    3.51119e+01
   9.95000e+03,    3.06429e+00,    8.90322e+00,    3.51149e+01
   9.96000e+03,    3.06319e+00,    8.89736e+00,    3.51180e+01
   9.97000e+03,    3.06209e+00,    8.89151e+00,    3.51211e+01
   9.98000e+03,    3.06099e+00,    8.88566e+00,    3.51242e+01
   9.99000e+03,    3.05990e+00,    8.87983e+00,    3.51272e+01
   1.00000e+04,    3.05880e+00,    8.87401e+00,    3.51303e+01
